ENLIGHTEN Version,1.7.2
Measurement ID,20190716-204120-788254-WP-00340
Serial Number,WP-00340
Label,2mm-HDPE
Integration Time,2000
Timestamp,2019-07-16 20:41:20.788254
Note,
Temperature,-99
CCD C0,801.7174072265625
CCD C1,0.14122000336647034
CCD C2,-5.609700110653648e-06
CCD C3,-8.541699791919655e-09
CCD Offset,0
CCD Gain,1.9
Laser Wavelength,785.0
Laser Enable,True
Laser Power,100.0
Laser Temperature,-99
Pixel Count,1024

Wavenumber,Processed
265.63,216.00
267.83,229.00
270.02,263.00
272.22,367.00
274.41,432.00
276.60,614.00
278.80,748.00
280.99,914.00
283.18,1185.00
285.37,1440.00
287.55,1661.00
289.74,1967.00
291.93,2233.00
294.11,2527.00
296.30,2827.00
298.48,3025.00
300.66,3141.00
302.84,3369.00
305.02,3384.00
307.20,3360.00
309.38,3502.00
311.56,3428.00
313.74,3465.00
315.91,3476.00
318.09,3535.00
320.26,3506.00
322.43,3527.00
324.61,3466.00
326.78,3530.00
328.95,3563.00
331.12,3595.00
333.28,3607.00
335.45,3670.00
337.62,3689.00
339.78,3671.00
341.95,3716.00
344.11,3667.00
346.27,3702.00
348.43,3681.00
350.59,3690.00
352.75,3668.00
354.91,3698.00
357.07,3702.00
359.23,3706.00
361.38,3704.00
363.54,3662.00
365.69,3728.00
367.84,3673.00
370.00,3693.00
372.15,3807.00
374.30,3746.00
376.45,3738.00
378.59,3763.00
380.74,3883.00
382.89,3845.00
385.03,3814.00
387.18,3824.00
389.32,3902.00
391.46,3843.00
393.60,3877.00
395.74,3879.00
397.88,3864.00
400.02,3885.00
402.16,3843.00
404.29,3892.00
406.43,3872.00
408.57,3891.00
410.70,3843.00
412.83,3855.00
414.96,3920.00
417.09,3915.00
419.22,3940.00
421.35,3958.00
423.48,3888.00
425.61,3957.00
427.73,3913.00
429.86,3913.00
431.98,3875.00
434.11,3824.00
436.23,3876.00
438.35,3928.00
440.47,3903.00
442.59,3909.00
444.71,3861.00
446.82,3880.00
448.94,3925.00
451.05,3907.00
453.17,3941.00
455.28,3808.00
457.39,3830.00
459.51,3826.00
461.62,3870.00
463.73,3934.00
465.83,3839.00
467.94,3820.00
470.05,3814.00
472.15,3839.00
474.26,3910.00
476.36,3815.00
478.47,3902.00
480.57,3919.00
482.67,3881.00
484.77,3913.00
486.87,3926.00
488.97,3899.00
491.06,3946.00
493.16,3917.00
495.25,3795.00
497.35,3683.00
499.44,3736.00
501.53,3601.00
503.62,3652.00
505.71,3603.00
507.80,3437.00
509.89,3396.00
511.98,3436.00
514.07,3338.00
516.15,3365.00
518.24,3382.00
520.32,3369.00
522.40,3308.00
524.48,3240.00
526.56,3338.00
528.64,3222.00
530.72,3314.00
532.80,3218.00
534.88,3171.00
536.95,3248.00
539.03,3192.00
541.10,3154.00
543.17,3185.00
545.24,3133.00
547.32,3179.00
549.39,3177.00
551.45,3171.00
553.52,3149.00
555.59,3198.00
557.66,3103.00
559.72,3125.00
561.78,3152.00
563.85,3125.00
565.91,3165.00
567.97,3148.00
570.03,3123.00
572.09,3105.00
574.15,3120.00
576.21,3142.00
578.26,3198.00
580.32,3163.00
582.37,3183.00
584.42,3145.00
586.48,3200.00
588.53,3125.00
590.58,3177.00
592.63,3162.00
594.68,3188.00
596.72,3191.00
598.77,3078.00
600.82,3131.00
602.86,3086.00
604.90,3124.00
606.95,3015.00
608.99,3133.00
611.03,3057.00
613.07,3063.00
615.11,3051.00
617.15,2985.00
619.18,2960.00
621.22,2956.00
623.25,3026.00
625.29,2997.00
627.32,2972.00
629.35,2926.00
631.38,2945.00
633.41,2972.00
635.44,2950.00
637.47,2927.00
639.50,2925.00
641.52,2958.00
643.55,2946.00
645.57,2916.00
647.60,2918.00
649.62,2888.00
651.64,3007.00
653.66,2973.00
655.68,2934.00
657.70,2926.00
659.71,2952.00
661.73,2998.00
663.75,2935.00
665.76,2947.00
667.77,2916.00
669.79,2915.00
671.80,2893.00
673.81,2914.00
675.82,2906.00
677.83,2922.00
679.83,2954.00
681.84,2932.00
683.84,2948.00
685.85,2935.00
687.85,2943.00
689.86,2943.00
691.86,2964.00
693.86,2929.00
695.86,2953.00
697.86,2935.00
699.85,2888.00
701.85,3008.00
703.85,2947.00
705.84,2936.00
707.84,3022.00
709.83,2998.00
711.82,3067.00
713.81,3043.00
715.80,3071.00
717.79,3141.00
719.78,3103.00
721.76,3059.00
723.75,3158.00
725.74,3072.00
727.72,3138.00
729.70,3080.00
731.68,3034.00
733.67,3069.00
735.65,3076.00
737.62,3078.00
739.60,3085.00
741.58,3061.00
743.56,3044.00
745.53,3040.00
747.51,3017.00
749.48,3023.00
751.45,3036.00
753.42,3010.00
755.39,2949.00
757.36,3038.00
759.33,3032.00
761.30,3009.00
763.26,3038.00
765.23,3015.00
767.19,3079.00
769.16,3061.00
771.12,3019.00
773.08,3116.00
775.04,3152.00
777.00,3114.00
778.96,3165.00
780.92,3193.00
782.87,3213.00
784.83,3173.00
786.78,3211.00
788.74,3183.00
790.69,3190.00
792.64,3246.00
794.59,3234.00
796.54,3300.00
798.49,3202.00
800.44,3200.00
802.38,3238.00
804.33,3277.00
806.27,3235.00
808.22,3212.00
810.16,3234.00
812.10,3234.00
814.04,3248.00
815.98,3185.00
817.92,3255.00
819.86,3268.00
821.80,3165.00
823.73,3302.00
825.67,3249.00
827.60,3291.00
829.53,3227.00
831.47,3246.00
833.40,3250.00
835.33,3253.00
837.26,3228.00
839.18,3265.00
841.11,3226.00
843.04,3234.00
844.96,3264.00
846.89,3310.00
848.81,3295.00
850.73,3203.00
852.65,3283.00
854.57,3238.00
856.49,3274.00
858.41,3378.00
860.33,3270.00
862.24,3243.00
864.16,3270.00
866.07,3291.00
867.99,3308.00
869.90,3270.00
871.81,3329.00
873.72,3306.00
875.63,3319.00
877.54,3264.00
879.44,3354.00
881.35,3276.00
883.26,3254.00
885.16,3289.00
887.06,3298.00
888.97,3256.00
890.87,3207.00
892.77,3165.00
894.67,3224.00
896.57,3205.00
898.46,3184.00
900.36,3192.00
902.26,3091.00
904.15,3118.00
906.04,3067.00
907.94,3156.00
909.83,3042.00
911.72,3076.00
913.61,3102.00
915.50,3010.00
917.38,3048.00
919.27,3049.00
921.16,3024.00
923.04,3001.00
924.92,3051.00
926.81,2968.00
928.69,2979.00
930.57,3002.00
932.45,2985.00
934.33,2998.00
936.20,2936.00
938.08,2889.00
939.96,2926.00
941.83,2844.00
943.71,2909.00
945.58,2818.00
947.45,2875.00
949.32,2791.00
951.19,2854.00
953.06,2818.00
954.93,2884.00
956.79,2839.00
958.66,2817.00
960.52,2789.00
962.39,2846.00
964.25,2878.00
966.11,2821.00
967.97,2861.00
969.83,2811.00
971.69,2908.00
973.55,2916.00
975.41,2869.00
977.26,2857.00
979.12,2795.00
980.97,2785.00
982.82,2836.00
984.68,2759.00
986.53,2864.00
988.38,2855.00
990.23,2834.00
992.07,2833.00
993.92,2884.00
995.77,2854.00
997.61,2827.00
999.46,2918.00
1001.30,2901.00
1003.14,2907.00
1004.98,2950.00
1006.82,2865.00
1008.66,2975.00
1010.50,2915.00
1012.34,2983.00
1014.17,2952.00
1016.01,2956.00
1017.84,3064.00
1019.68,2979.00
1021.51,2977.00
1023.34,3065.00
1025.17,3060.00
1027.00,3056.00
1028.83,3130.00
1030.65,3111.00
1032.48,3140.00
1034.31,3176.00
1036.13,3285.00
1037.95,3198.00
1039.77,3247.00
1041.60,3296.00
1043.42,3399.00
1045.24,3508.00
1047.05,3639.00
1048.87,4039.00
1050.69,4531.00
1052.50,5329.00
1054.32,6622.00
1056.13,8422.00
1057.94,10225.00
1059.75,11502.00
1061.56,12102.00
1063.37,11743.00
1065.18,10297.00
1066.99,8716.00
1068.80,6991.00
1070.60,5783.00
1072.41,5154.00
1074.21,4731.00
1076.01,4617.00
1077.81,4516.00
1079.61,4454.00
1081.41,4520.00
1083.21,4379.00
1085.01,4379.00
1086.81,4288.00
1088.60,4244.00
1090.40,4195.00
1092.19,3920.00
1093.98,3846.00
1095.77,3755.00
1097.56,3746.00
1099.35,3594.00
1101.14,3590.00
1102.93,3542.00
1104.72,3561.00
1106.50,3540.00
1108.29,3533.00
1110.07,3665.00
1111.85,3791.00
1113.63,3989.00
1115.41,4236.00
1117.19,4596.00
1118.97,5353.00
1120.75,6449.00
1122.53,8093.00
1124.30,9953.00
1126.08,11561.00
1127.85,12386.00
1129.62,12369.00
1131.39,11123.00
1133.17,9378.00
1134.93,7368.00
1136.70,5810.00
1138.47,4663.00
1140.24,4042.00
1142.00,3643.00
1143.77,3455.00
1145.53,3304.00
1147.29,3264.00
1149.06,3223.00
1150.82,3147.00
1152.58,3102.00
1154.34,3086.00
1156.09,3052.00
1157.85,3143.00
1159.61,3244.00
1161.36,3497.00
1163.11,3649.00
1164.87,3999.00
1166.62,4200.00
1168.37,4303.00
1170.12,4300.00
1171.87,4093.00
1173.62,3841.00
1175.36,3483.00
1177.11,3192.00
1178.85,2998.00
1180.60,2929.00
1182.34,2825.00
1184.08,2825.00
1185.82,2766.00
1187.56,2760.00
1189.30,2783.00
1191.04,2842.00
1192.78,2832.00
1194.51,2791.00
1196.25,2783.00
1197.98,2734.00
1199.71,2743.00
1201.45,2713.00
1203.18,2732.00
1204.91,2686.00
1206.64,2659.00
1208.36,2668.00
1210.09,2710.00
1211.82,2640.00
1213.54,2614.00
1215.27,2656.00
1216.99,2642.00
1218.71,2680.00
1220.43,2665.00
1222.15,2673.00
1223.87,2608.00
1225.59,2656.00
1227.31,2677.00
1229.02,2636.00
1230.74,2709.00
1232.45,2679.00
1234.16,2626.00
1235.88,2623.00
1237.59,2621.00
1239.30,2749.00
1241.01,2679.00
1242.71,2636.00
1244.42,2677.00
1246.13,2631.00
1247.83,2728.00
1249.54,2675.00
1251.24,2693.00
1252.94,2781.00
1254.64,2779.00
1256.34,2863.00
1258.04,2848.00
1259.74,2891.00
1261.44,3063.00
1263.13,3063.00
1264.83,3219.00
1266.52,3230.00
1268.22,3291.00
1269.91,3351.00
1271.60,3275.00
1273.29,3363.00
1274.98,3424.00
1276.67,3384.00
1278.35,3544.00
1280.04,3627.00
1281.73,3900.00
1283.41,4347.00
1285.09,5325.00
1286.78,6736.00
1288.46,9239.00
1290.14,12116.00
1291.82,14823.00
1293.49,15701.00
1295.17,16581.00
1296.85,15258.00
1298.52,12837.00
1300.20,10280.00
1301.87,8102.00
1303.54,6514.00
1305.21,5547.00
1306.88,5097.00
1308.55,4652.00
1310.22,4326.00
1311.89,4132.00
1313.56,3927.00
1315.22,3760.00
1316.89,3582.00
1318.55,3388.00
1320.21,3297.00
1321.87,3196.00
1323.53,3080.00
1325.19,3021.00
1326.85,2948.00
1328.51,2819.00
1330.16,2762.00
1331.82,2688.00
1333.47,2669.00
1335.13,2585.00
1336.78,2612.00
1338.43,2525.00
1340.08,2580.00
1341.73,2586.00
1343.38,2569.00
1345.03,2480.00
1346.67,2515.00
1348.32,2528.00
1349.96,2519.00
1351.61,2479.00
1353.25,2475.00
1354.89,2541.00
1356.53,2574.00
1358.17,2516.00
1359.81,2674.00
1361.45,2717.00
1363.08,2945.00
1364.72,3025.00
1366.35,3183.00
1367.99,3145.00
1369.62,3142.00
1371.25,3045.00
1372.88,2909.00
1374.51,2823.00
1376.14,2663.00
1377.77,2549.00
1379.39,2528.00
1381.02,2439.00
1382.64,2380.00
1384.27,2418.00
1385.89,2378.00
1387.51,2401.00
1389.13,2350.00
1390.75,2366.00
1392.37,2389.00
1393.99,2330.00
1395.60,2418.00
1397.22,2418.00
1398.83,2475.00
1400.45,2494.00
1402.06,2595.00
1403.67,2701.00
1405.28,3012.00
1406.89,3255.00
1408.50,4006.00
1410.11,4817.00
1411.71,5736.00
1413.32,6513.00
1414.92,7118.00
1416.53,7432.00
1418.13,7236.00
1419.73,6792.00
1421.33,6245.00
1422.93,5935.00
1424.53,5665.00
1426.13,5849.00
1427.72,6387.00
1429.32,7133.00
1430.91,8228.00
1432.51,9614.00
1434.10,11062.00
1435.69,12521.00
1437.28,13671.00
1438.87,14211.00
1440.46,14171.00
1442.05,13556.00
1443.64,12447.00
1445.22,11299.00
1446.81,10258.00
1448.39,9517.00
1449.97,9072.00
1451.55,8833.00
1453.14,8779.00
1454.72,8922.00
1456.29,8967.00
1457.87,9089.00
1459.45,9205.00
1461.02,9091.00
1462.60,8947.00
1464.17,8637.00
1465.75,8218.00
1467.32,7535.00
1468.89,6999.00
1470.46,6323.00
1472.03,5700.00
1473.59,5132.00
1475.16,4623.00
1476.73,4191.00
1478.29,3946.00
1479.86,3539.00
1481.42,3422.00
1482.98,3231.00
1484.54,3085.00
1486.10,2992.00
1487.66,2854.00
1489.22,2715.00
1490.77,2673.00
1492.33,2530.00
1493.88,2553.00
1495.44,2490.00
1496.99,2441.00
1498.54,2395.00
1500.09,2420.00
1501.64,2311.00
1503.19,2327.00
1504.74,2307.00
1506.29,2272.00
1507.83,2247.00
1509.38,2214.00
1510.92,2224.00
1512.47,2174.00
1514.01,2205.00
1515.55,2163.00
1517.09,2147.00
1518.63,2138.00
1520.16,2104.00
1521.70,2117.00
1523.24,2182.00
1524.77,2157.00
1526.31,2081.00
1527.84,2060.00
1529.37,2053.00
1530.90,2176.00
1532.43,2089.00
1533.96,2102.00
1535.49,2117.00
1537.02,2078.00
1538.54,2051.00
1540.07,2098.00
1541.59,2081.00
1543.11,2053.00
1544.64,2102.00
1546.16,2066.00
1547.68,2060.00
1549.20,2106.00
1550.71,2130.00
1552.23,2088.00
1553.75,2066.00
1555.26,2093.00
1556.78,2074.00
1558.29,2100.00
1559.80,2043.00
1561.31,2045.00
1562.82,2044.00
1564.33,2031.00
1565.84,1940.00
1567.35,1965.00
1568.85,2009.00
1570.36,1990.00
1571.86,2028.00
1573.36,1998.00
1574.87,2001.00
1576.37,1969.00
1577.87,1965.00
1579.37,1982.00
1580.87,1958.00
1582.36,1959.00
1583.86,1893.00
1585.35,1903.00
1586.85,1901.00
1588.34,1956.00
1589.83,1921.00
1591.32,1919.00
1592.81,1899.00
1594.30,1878.00
1595.79,1929.00
1597.28,1994.00
1598.76,1906.00
1600.25,1876.00
1601.73,1870.00
1603.22,1861.00
1604.70,1850.00
1606.18,1879.00
1607.66,1851.00
1609.14,1917.00
1610.62,1875.00
1612.10,1837.00
1613.57,1809.00
1615.05,1870.00
1616.52,1886.00
1617.99,1883.00
1619.47,1868.00
1620.94,1870.00
1622.41,1781.00
1623.88,1846.00
1625.35,1710.00
1626.81,1773.00
1628.28,1808.00
1629.74,1788.00
1631.21,1763.00
1632.67,1790.00
1634.13,1780.00
1635.60,1798.00
1637.06,1812.00
1638.51,1790.00
1639.97,1819.00
1641.43,1803.00
1642.89,1790.00
1644.34,1777.00
1645.80,1722.00
1647.25,1795.00
1648.70,1765.00
1650.15,1727.00
1651.60,1727.00
1653.05,1697.00
1654.50,1693.00
1655.95,1693.00
1657.40,1686.00
1658.84,1651.00
1660.28,1629.00
1661.73,1663.00
1663.17,1651.00
1664.61,1628.00
1666.05,1614.00
1667.49,1651.00
1668.93,1579.00
1670.37,1623.00
1671.80,1560.00
1673.24,1596.00
1674.67,1563.00
1676.11,1540.00
1677.54,1610.00
1678.97,1575.00
1680.40,1602.00
1681.83,1535.00
1683.26,1576.00
1684.69,1570.00
1686.11,1522.00
1687.54,1494.00
1688.96,1563.00
1690.39,1518.00
1691.81,1503.00
1693.23,1571.00
1694.65,1520.00
1696.07,1566.00
1697.49,1449.00
1698.91,1528.00
1700.32,1524.00
1701.74,1512.00
1703.15,1497.00
1704.57,1509.00
1705.98,1495.00
1707.39,1505.00
1708.80,1518.00
1710.21,1461.00
1711.62,1558.00
1713.03,1520.00
1714.43,1505.00
1715.84,1476.00
1717.24,1502.00
1718.65,1513.00
1720.05,1502.00
1721.45,1485.00
1722.85,1499.00
1724.25,1526.00
1725.65,1467.00
1727.05,1458.00
1728.44,1480.00
1729.84,1461.00
1731.23,1476.00
1732.63,1453.00
1734.02,1465.00
1735.41,1472.00
1736.80,1444.00
1738.19,1480.00
1739.58,1428.00
1740.97,1429.00
1742.35,1480.00
1743.74,1419.00
1745.12,1450.00
1746.51,1440.00
1747.89,1431.00
1749.27,1452.00
1750.65,1419.00
1752.03,1380.00
1753.41,1438.00
1754.79,1392.00
1756.17,1379.00
1757.54,1420.00
1758.92,1421.00
1760.29,1389.00
1761.66,1338.00
1763.03,1444.00
1764.41,1404.00
1765.78,1366.00
1767.14,1354.00
1768.51,1392.00
1769.88,1371.00
1771.24,1390.00
1772.61,1341.00
1773.97,1368.00
1775.34,1372.00
1776.70,1317.00
1778.06,1362.00
1779.42,1357.00
1780.78,1332.00
1782.13,1312.00
1783.49,1387.00
1784.85,1368.00
1786.20,1347.00
1787.56,1339.00
1788.91,1349.00
1790.26,1309.00
1791.61,1383.00
1792.96,1320.00
1794.31,1318.00
1795.66,1341.00
1797.00,1269.00
1798.35,1257.00
1799.69,1282.00
1801.04,1261.00
1802.38,1286.00
1803.72,1286.00
1805.06,1240.00
1806.40,1223.00
1807.74,1261.00
1809.08,1277.00
1810.42,1260.00
1811.75,1318.00
1813.09,1260.00
1814.42,1271.00
1815.76,1241.00
1817.09,1214.00
1818.42,1250.00
1819.75,1196.00
1821.08,1254.00
1822.40,1193.00
1823.73,1212.00
1825.06,1207.00
1826.38,1175.00
1827.71,1147.00
1829.03,1178.00
1830.35,1191.00
1831.67,1225.00
1832.99,1160.00
1834.31,1180.00
1835.63,1231.00
1836.95,1189.00
1838.26,1172.00
1839.58,1166.00
1840.89,1134.00
1842.20,1151.00
1843.52,1181.00
1844.83,1174.00
1846.14,1134.00
1847.45,1136.00
1848.75,1128.00
1850.06,1096.00
1851.37,1096.00
1852.67,1111.00
1853.98,1117.00
1855.28,1062.00
1856.58,1082.00
1857.88,1106.00
1859.18,1092.00
1860.48,1096.00
1861.78,1048.00
1863.08,1048.00
1864.37,1071.00
1865.67,1037.00
1866.96,1039.00
1868.26,1037.00
1869.55,1010.00
1870.84,1039.00
1872.13,1064.00
1873.42,1046.00
1874.71,1024.00
1875.99,1000.00
1877.28,1033.00
1878.56,1090.00
1879.85,1034.00
1881.13,988.00
1882.41,1016.00
1883.69,972.00
1884.97,1031.00
1886.25,953.00
1887.53,980.00
1888.81,995.00
1890.09,946.00
1891.36,1006.00
1892.63,1012.00
1893.91,983.00
1895.18,951.00
1896.45,904.00
1897.72,982.00
1898.99,928.00
1900.26,910.00
1901.53,934.00
1902.79,983.00
1904.06,935.00
1905.32,947.00
1906.58,919.00
1907.85,978.00
1909.11,930.00
1910.37,972.00
1911.63,928.00
1912.89,943.00
1914.14,894.00
1915.40,946.00
1916.65,937.00
1917.91,972.00
1919.16,919.00
1920.41,903.00
1921.67,930.00
1922.92,905.00
1924.17,896.00
1925.41,898.00
1926.66,862.00
1927.91,896.00
1929.15,887.00
1930.40,860.00
1931.64,888.00
1932.88,860.00
1934.12,874.00
1935.36,858.00
1936.60,824.00
1937.84,884.00
1939.08,843.00
1940.32,824.00
1941.55,858.00
1942.79,847.00
1944.02,824.00
1945.25,835.00
1946.48,850.00
1947.71,855.00
1948.94,834.00
1950.17,814.00
1951.40,820.00
1952.62,837.00
1953.85,840.00
1955.07,822.00
1956.30,833.00
1957.52,833.00
1958.74,870.00
1959.96,841.00
1961.18,837.00
1962.40,822.00
1963.62,874.00
1964.83,860.00
1966.05,799.00
1967.26,846.00
1968.48,786.00
1969.69,856.00
1970.90,835.00
1972.11,831.00
1973.32,812.00
1974.53,839.00
1975.74,801.00
1976.94,804.00
1978.15,788.00
1979.35,832.00
1980.56,826.00
1981.76,805.00
1982.96,807.00
1984.16,816.00
1985.36,789.00
1986.56,816.00
1987.76,778.00
1988.95,786.00
1990.15,795.00
1991.34,790.00
1992.54,778.00
1993.73,837.00
1994.92,818.00
1996.11,797.00
1997.30,812.00
1998.49,774.00
1999.68,769.00
