ENLIGHTEN Version,1.7.2
Measurement ID,20190905-090225-268495-WP-00340
Serial Number,WP-00340
Label,09:02:25 WP-00340
Integration Time,500
Timestamp,2019-09-05 09:02:25.268495
Note,
Temperature,10.010854111966182
CCD C0,801.7174072265625
CCD C1,0.14122000336647034
CCD C2,-5.609700110653648e-06
CCD C3,-8.541699791919655e-09
CCD Offset,0
CCD Gain,1.9
Laser Wavelength,785
Laser Enable,True
Laser Power,100
Laser Temperature,0
Pixel Count,1024

Pixel,Wavelength,Wavenumber,Processed
0,801.72,265.63,93.00
1,801.86,267.83,106.00
2,802.00,270.02,154.00
3,802.14,272.22,189.00
4,802.28,274.41,246.00
5,802.42,276.60,285.00
6,802.56,278.80,392.00
7,802.71,280.99,506.00
8,802.85,283.18,648.00
9,802.99,285.37,786.00
10,803.13,287.55,943.00
11,803.27,289.74,1122.00
12,803.41,291.93,1292.00
13,803.55,294.11,1456.00
14,803.69,296.30,1627.00
15,803.83,298.48,1748.00
16,803.98,300.66,1821.00
17,804.12,302.84,1926.00
18,804.26,305.02,1965.00
19,804.40,307.20,2038.00
20,804.54,309.38,2037.00
21,804.68,311.56,2024.00
22,804.82,313.74,2059.00
23,804.96,315.91,2032.00
24,805.10,318.09,2028.00
25,805.24,320.26,2026.00
26,805.39,322.43,2089.00
27,805.53,324.61,2058.00
28,805.67,326.78,2054.00
29,805.81,328.95,2076.00
30,805.95,331.12,2099.00
31,806.09,333.28,2106.00
32,806.23,335.45,2076.00
33,806.37,337.62,2137.00
34,806.51,339.78,2123.00
35,806.65,341.95,2119.00
36,806.79,344.11,2115.00
37,806.93,346.27,2116.00
38,807.08,348.43,2106.00
39,807.22,350.59,2108.00
40,807.36,352.75,2120.00
41,807.50,354.91,2136.00
42,807.64,357.07,2136.00
43,807.78,359.23,2135.00
44,807.92,361.38,2146.00
45,808.06,363.54,2130.00
46,808.20,365.69,2134.00
47,808.34,367.84,2136.00
48,808.48,370.00,2130.00
49,808.62,372.15,2147.00
50,808.76,374.30,2159.00
51,808.90,376.45,2126.00
52,809.04,378.59,2144.00
53,809.19,380.74,2119.00
54,809.33,382.89,2144.00
55,809.47,385.03,2174.00
56,809.61,387.18,2165.00
57,809.75,389.32,2167.00
58,809.89,391.46,2199.00
59,810.03,393.60,2177.00
60,810.17,395.74,2201.00
61,810.31,397.88,2230.00
62,810.45,400.02,2229.00
63,810.59,402.16,2199.00
64,810.73,404.29,2227.00
65,810.87,406.43,2225.00
66,811.01,408.57,2198.00
67,811.15,410.70,2210.00
68,811.29,412.83,2213.00
69,811.43,414.96,2165.00
70,811.57,417.09,2187.00
71,811.71,419.22,2197.00
72,811.85,421.35,2199.00
73,811.99,423.48,2209.00
74,812.13,425.61,2181.00
75,812.27,427.73,2184.00
76,812.41,429.86,2146.00
77,812.55,431.98,2161.00
78,812.69,434.11,2110.00
79,812.83,436.23,2184.00
80,812.97,438.35,2165.00
81,813.11,440.47,2148.00
82,813.26,442.59,2161.00
83,813.40,444.71,2197.00
84,813.54,446.82,2198.00
85,813.68,448.94,2188.00
86,813.82,451.05,2127.00
87,813.96,453.17,2157.00
88,814.10,455.28,2203.00
89,814.24,457.39,2153.00
90,814.38,459.51,2210.00
91,814.52,461.62,2211.00
92,814.66,463.73,2199.00
93,814.80,465.83,2203.00
94,814.94,467.94,2196.00
95,815.08,470.05,2199.00
96,815.22,472.15,2196.00
97,815.36,474.26,2213.00
98,815.50,476.36,2198.00
99,815.63,478.47,2218.00
100,815.77,480.57,2178.00
101,815.91,482.67,2224.00
102,816.05,484.77,2186.00
103,816.19,486.87,2218.00
104,816.33,488.97,2250.00
105,816.47,491.06,2204.00
106,816.61,493.16,2216.00
107,816.75,495.25,2184.00
108,816.89,497.35,2192.00
109,817.03,499.44,2140.00
110,817.17,501.53,2158.00
111,817.31,503.62,2176.00
112,817.45,505.71,2184.00
113,817.59,507.80,2144.00
114,817.73,509.89,2163.00
115,817.87,511.98,2140.00
116,818.01,514.07,2155.00
117,818.15,516.15,2123.00
118,818.29,518.24,2108.00
119,818.43,520.32,2137.00
120,818.57,522.40,2150.00
121,818.71,524.48,2110.00
122,818.85,526.56,2135.00
123,818.99,528.64,2132.00
124,819.13,530.72,2135.00
125,819.27,532.80,2111.00
126,819.40,534.88,2102.00
127,819.54,536.95,2077.00
128,819.68,539.03,2094.00
129,819.82,541.10,2114.00
130,819.96,543.17,2065.00
131,820.10,545.24,2117.00
132,820.24,547.32,2062.00
133,820.38,549.39,2098.00
134,820.52,551.45,2134.00
135,820.66,553.52,2132.00
136,820.80,555.59,2114.00
137,820.94,557.66,2052.00
138,821.08,559.72,2108.00
139,821.22,561.78,2095.00
140,821.35,563.85,2116.00
141,821.49,565.91,2101.00
142,821.63,567.97,2074.00
143,821.77,570.03,2068.00
144,821.91,572.09,2064.00
145,822.05,574.15,2106.00
146,822.19,576.21,2091.00
147,822.33,578.26,2095.00
148,822.47,580.32,2062.00
149,822.61,582.37,2093.00
150,822.75,584.42,2083.00
151,822.88,586.48,2106.00
152,823.02,588.53,2081.00
153,823.16,590.58,2098.00
154,823.30,592.63,2106.00
155,823.44,594.68,2111.00
156,823.58,596.72,2121.00
157,823.72,598.77,2076.00
158,823.86,600.82,2093.00
159,824.00,602.86,2094.00
160,824.13,604.90,2134.00
161,824.27,606.95,2080.00
162,824.41,608.99,2073.00
163,824.55,611.03,2068.00
164,824.69,613.07,2070.00
165,824.83,615.11,2092.00
166,824.97,617.15,2051.00
167,825.10,619.18,2034.00
168,825.24,621.22,2060.00
169,825.38,623.25,2035.00
170,825.52,625.29,2064.00
171,825.66,627.32,2042.00
172,825.80,629.35,2069.00
173,825.94,631.38,2077.00
174,826.07,633.41,2073.00
175,826.21,635.44,2070.00
176,826.35,637.47,2066.00
177,826.49,639.50,2093.00
178,826.63,641.52,2075.00
179,826.77,643.55,2056.00
180,826.91,645.57,2064.00
181,827.04,647.60,2032.00
182,827.18,649.62,2064.00
183,827.32,651.64,2053.00
184,827.46,653.66,2064.00
185,827.60,655.68,2062.00
186,827.74,657.70,2069.00
187,827.87,659.71,2037.00
188,828.01,661.73,2056.00
189,828.15,663.75,2066.00
190,828.29,665.76,2065.00
191,828.43,667.77,2041.00
192,828.56,669.79,2047.00
193,828.70,671.80,2053.00
194,828.84,673.81,2058.00
195,828.98,675.82,2081.00
196,829.12,677.83,2051.00
197,829.25,679.83,2033.00
198,829.39,681.84,2069.00
199,829.53,683.84,2055.00
200,829.67,685.85,2062.00
201,829.81,687.85,2069.00
202,829.94,689.86,2129.00
203,830.08,691.86,2051.00
204,830.22,693.86,2080.00
205,830.36,695.86,2100.00
206,830.50,697.86,2119.00
207,830.63,699.85,2108.00
208,830.77,701.85,2123.00
209,830.91,703.85,2108.00
210,831.05,705.84,2076.00
211,831.18,707.84,2119.00
212,831.32,709.83,2145.00
213,831.46,711.82,2146.00
214,831.60,713.81,2212.00
215,831.74,715.80,2225.00
216,831.87,717.79,2188.00
217,832.01,719.78,2186.00
218,832.15,721.76,2247.00
219,832.29,723.75,2205.00
220,832.42,725.74,2245.00
221,832.56,727.72,2216.00
222,832.70,729.70,2196.00
223,832.84,731.68,2235.00
224,832.97,733.67,2179.00
225,833.11,735.65,2177.00
226,833.25,737.62,2192.00
227,833.39,739.60,2220.00
228,833.52,741.58,2209.00
229,833.66,743.56,2173.00
230,833.80,745.53,2192.00
231,833.93,747.51,2171.00
232,834.07,749.48,2237.00
233,834.21,751.45,2186.00
234,834.35,753.42,2210.00
235,834.48,755.39,2165.00
236,834.62,757.36,2195.00
237,834.76,759.33,2205.00
238,834.89,761.30,2194.00
239,835.03,763.26,2182.00
240,835.17,765.23,2205.00
241,835.31,767.19,2205.00
242,835.44,769.16,2229.00
243,835.58,771.12,2218.00
244,835.72,773.08,2221.00
245,835.85,775.04,2201.00
246,835.99,777.00,2231.00
247,836.13,778.96,2268.00
248,836.26,780.92,2249.00
249,836.40,782.87,2247.00
250,836.54,784.83,2248.00
251,836.68,786.78,2235.00
252,836.81,788.74,2251.00
253,836.95,790.69,2287.00
254,837.09,792.64,2302.00
255,837.22,794.59,2277.00
256,837.36,796.54,2262.00
257,837.50,798.49,2298.00
258,837.63,800.44,2254.00
259,837.77,802.38,2273.00
260,837.91,804.33,2291.00
261,838.04,806.27,2277.00
262,838.18,808.22,2321.00
263,838.31,810.16,2315.00
264,838.45,812.10,2306.00
265,838.59,814.04,2285.00
266,838.72,815.98,2300.00
267,838.86,817.92,2295.00
268,839.00,819.86,2331.00
269,839.13,821.80,2319.00
270,839.27,823.73,2361.00
271,839.41,825.67,2319.00
272,839.54,827.60,2323.00
273,839.68,829.53,2385.00
274,839.81,831.47,2346.00
275,839.95,833.40,2363.00
276,840.09,835.33,2380.00
277,840.22,837.26,2376.00
278,840.36,839.18,2442.00
279,840.50,841.11,2395.00
280,840.63,843.04,2405.00
281,840.77,844.96,2403.00
282,840.90,846.89,2456.00
283,841.04,848.81,2426.00
284,841.18,850.73,2427.00
285,841.31,852.65,2406.00
286,841.45,854.57,2481.00
287,841.58,856.49,2453.00
288,841.72,858.41,2503.00
289,841.86,860.33,2479.00
290,841.99,862.24,2454.00
291,842.13,864.16,2502.00
292,842.26,866.07,2532.00
293,842.40,867.99,2470.00
294,842.53,869.90,2537.00
295,842.67,871.81,2543.00
296,842.81,873.72,2522.00
297,842.94,875.63,2534.00
298,843.08,877.54,2538.00
299,843.21,879.44,2473.00
300,843.35,881.35,2532.00
301,843.48,883.26,2501.00
302,843.62,885.16,2501.00
303,843.75,887.06,2513.00
304,843.89,888.97,2498.00
305,844.03,890.87,2469.00
306,844.16,892.77,2503.00
307,844.30,894.67,2501.00
308,844.43,896.57,2498.00
309,844.57,898.46,2454.00
310,844.70,900.36,2415.00
311,844.84,902.26,2422.00
312,844.97,904.15,2425.00
313,845.11,906.04,2387.00
314,845.24,907.94,2399.00
315,845.38,909.83,2401.00
316,845.51,911.72,2359.00
317,845.65,913.61,2414.00
318,845.78,915.50,2361.00
319,845.92,917.38,2381.00
320,846.05,919.27,2357.00
321,846.19,921.16,2342.00
322,846.32,923.04,2359.00
323,846.46,924.92,2372.00
324,846.59,926.81,2352.00
325,846.73,928.69,2352.00
326,846.86,930.57,2335.00
327,847.00,932.45,2334.00
328,847.13,934.33,2327.00
329,847.27,936.20,2298.00
330,847.40,938.08,2285.00
331,847.54,939.96,2275.00
332,847.67,941.83,2286.00
333,847.81,943.71,2237.00
334,847.94,945.58,2247.00
335,848.08,947.45,2189.00
336,848.21,949.32,2239.00
337,848.34,951.19,2222.00
338,848.48,953.06,2267.00
339,848.61,954.93,2229.00
340,848.75,956.79,2209.00
341,848.88,958.66,2226.00
342,849.02,960.52,2228.00
343,849.15,962.39,2230.00
344,849.29,964.25,2205.00
345,849.42,966.11,2224.00
346,849.55,967.97,2237.00
347,849.69,969.83,2227.00
348,849.82,971.69,2227.00
349,849.96,973.55,2226.00
350,850.09,975.41,2211.00
351,850.23,977.26,2168.00
352,850.36,979.12,2224.00
353,850.49,980.97,2237.00
354,850.63,982.82,2247.00
355,850.76,984.68,2220.00
356,850.90,986.53,2237.00
357,851.03,988.38,2237.00
358,851.16,990.23,2260.00
359,851.30,992.07,2233.00
360,851.43,993.92,2230.00
361,851.56,995.77,2275.00
362,851.70,997.61,2258.00
363,851.83,999.46,2273.00
364,851.97,1001.30,2258.00
365,852.10,1003.14,2313.00
366,852.23,1004.98,2269.00
367,852.37,1006.82,2311.00
368,852.50,1008.66,2343.00
369,852.63,1010.50,2313.00
370,852.77,1012.34,2323.00
371,852.90,1014.17,2344.00
372,853.04,1016.01,2387.00
373,853.17,1017.84,2356.00
374,853.30,1019.68,2376.00
375,853.44,1021.51,2382.00
376,853.57,1023.34,2429.00
377,853.70,1025.17,2376.00
378,853.84,1027.00,2418.00
379,853.97,1028.83,2419.00
380,854.10,1030.65,2437.00
381,854.24,1032.48,2473.00
382,854.37,1034.31,2503.00
383,854.50,1036.13,2518.00
384,854.64,1037.95,2538.00
385,854.77,1039.77,2562.00
386,854.90,1041.60,2588.00
387,855.03,1043.42,2656.00
388,855.17,1045.24,2716.00
389,855.30,1047.05,2838.00
390,855.43,1048.87,3070.00
391,855.57,1050.69,3379.00
392,855.70,1052.50,3966.00
393,855.83,1054.32,4933.00
394,855.96,1056.13,6205.00
395,856.10,1057.94,7555.00
396,856.23,1059.75,8734.00
397,856.36,1061.56,9209.00
398,856.50,1063.37,8985.00
399,856.63,1065.18,8165.00
400,856.76,1066.99,6887.00
401,856.89,1068.80,5517.00
402,857.03,1070.60,4592.00
403,857.16,1072.41,4043.00
404,857.29,1074.21,3658.00
405,857.42,1076.01,3592.00
406,857.56,1077.81,3540.00
407,857.69,1079.61,3485.00
408,857.82,1081.41,3510.00
409,857.95,1083.21,3457.00
410,858.09,1085.01,3379.00
411,858.22,1086.81,3383.00
412,858.35,1088.60,3297.00
413,858.48,1090.40,3209.00
414,858.61,1092.19,3152.00
415,858.75,1093.98,3031.00
416,858.88,1095.77,2976.00
417,859.01,1097.56,2935.00
418,859.14,1099.35,2865.00
419,859.28,1101.14,2836.00
420,859.41,1102.93,2831.00
421,859.54,1104.72,2834.00
422,859.67,1106.50,2817.00
423,859.80,1108.29,2890.00
424,859.94,1110.07,2922.00
425,860.07,1111.85,3045.00
426,860.20,1113.63,3112.00
427,860.33,1115.41,3342.00
428,860.46,1117.19,3620.00
429,860.59,1118.97,4149.00
430,860.73,1120.75,5014.00
431,860.86,1122.53,6337.00
432,860.99,1124.30,7836.00
433,861.12,1126.08,9245.00
434,861.25,1127.85,10069.00
435,861.38,1129.62,10076.00
436,861.51,1131.39,9201.00
437,861.65,1133.17,7794.00
438,861.78,1134.93,6269.00
439,861.91,1136.70,4847.00
440,862.04,1138.47,3890.00
441,862.17,1140.24,3343.00
442,862.30,1142.00,3055.00
443,862.43,1143.77,2827.00
444,862.57,1145.53,2732.00
445,862.70,1147.29,2596.00
446,862.83,1149.06,2614.00
447,862.96,1150.82,2541.00
448,863.09,1152.58,2553.00
449,863.22,1154.34,2537.00
450,863.35,1156.09,2524.00
451,863.48,1157.85,2543.00
452,863.61,1159.61,2669.00
453,863.74,1161.36,2751.00
454,863.88,1163.11,2894.00
455,864.01,1164.87,3102.00
456,864.14,1166.62,3341.00
457,864.27,1168.37,3435.00
458,864.40,1170.12,3426.00
459,864.53,1171.87,3256.00
460,864.66,1173.62,3059.00
461,864.79,1175.36,2804.00
462,864.92,1177.11,2644.00
463,865.05,1178.85,2481.00
464,865.18,1180.60,2409.00
465,865.31,1182.34,2345.00
466,865.44,1184.08,2319.00
467,865.57,1185.82,2253.00
468,865.70,1187.56,2277.00
469,865.83,1189.30,2254.00
470,865.96,1191.04,2241.00
471,866.10,1192.78,2246.00
472,866.23,1194.51,2241.00
473,866.36,1196.25,2202.00
474,866.49,1197.98,2193.00
475,866.62,1199.71,2229.00
476,866.75,1201.45,2224.00
477,866.88,1203.18,2194.00
478,867.01,1204.91,2208.00
479,867.14,1206.64,2174.00
480,867.27,1208.36,2233.00
481,867.40,1210.09,2218.00
482,867.53,1211.82,2190.00
483,867.66,1213.54,2172.00
484,867.79,1215.27,2188.00
485,867.92,1216.99,2182.00
486,868.04,1218.71,2229.00
487,868.17,1220.43,2193.00
488,868.30,1222.15,2188.00
489,868.43,1223.87,2174.00
490,868.56,1225.59,2191.00
491,868.69,1227.31,2197.00
492,868.82,1229.02,2184.00
493,868.95,1230.74,2195.00
494,869.08,1232.45,2223.00
495,869.21,1234.16,2209.00
496,869.34,1235.88,2219.00
497,869.47,1237.59,2229.00
498,869.60,1239.30,2168.00
499,869.73,1241.01,2199.00
500,869.86,1242.71,2212.00
501,869.99,1244.42,2191.00
502,870.12,1246.13,2214.00
503,870.24,1247.83,2197.00
504,870.37,1249.54,2243.00
505,870.50,1251.24,2280.00
506,870.63,1252.94,2298.00
507,870.76,1254.64,2276.00
508,870.89,1256.34,2304.00
509,871.02,1258.04,2409.00
510,871.15,1259.74,2410.00
511,871.28,1261.44,2500.00
512,871.41,1263.13,2535.00
513,871.53,1264.83,2556.00
514,871.66,1266.52,2648.00
515,871.79,1268.22,2690.00
516,871.92,1269.91,2686.00
517,872.05,1271.60,2696.00
518,872.18,1273.29,2747.00
519,872.31,1274.98,2737.00
520,872.43,1276.67,2776.00
521,872.56,1278.35,2842.00
522,872.69,1280.04,2986.00
523,872.82,1281.73,3117.00
524,872.95,1283.41,3407.00
525,873.08,1285.09,3985.00
526,873.20,1286.78,5085.00
527,873.33,1288.46,6847.00
528,873.46,1290.14,9015.00
529,873.59,1291.82,11188.00
530,873.72,1293.49,12004.00
531,873.84,1295.17,12820.00
532,873.97,1296.85,11913.00
533,874.10,1298.52,10184.00
534,874.23,1300.20,8195.00
535,874.36,1301.87,6411.00
536,874.48,1303.54,5207.00
537,874.61,1305.21,4421.00
538,874.74,1306.88,4027.00
539,874.87,1308.55,3750.00
540,875.00,1310.22,3461.00
541,875.12,1311.89,3326.00
542,875.25,1313.56,3111.00
543,875.38,1315.22,3010.00
544,875.51,1316.89,2929.00
545,875.63,1318.55,2759.00
546,875.76,1320.21,2752.00
547,875.89,1321.87,2581.00
548,876.02,1323.53,2517.00
549,876.14,1325.19,2482.00
550,876.27,1326.85,2410.00
551,876.40,1328.51,2336.00
552,876.52,1330.16,2273.00
553,876.65,1331.82,2209.00
554,876.78,1333.47,2215.00
555,876.91,1335.13,2165.00
556,877.03,1336.78,2154.00
557,877.16,1338.43,2123.00
558,877.29,1340.08,2144.00
559,877.41,1341.73,2142.00
560,877.54,1343.38,2126.00
561,877.67,1345.03,2091.00
562,877.80,1346.67,2125.00
563,877.92,1348.32,2104.00
564,878.05,1349.96,2087.00
565,878.18,1351.61,2107.00
566,878.30,1353.25,2089.00
567,878.43,1354.89,2047.00
568,878.56,1356.53,2102.00
569,878.68,1358.17,2133.00
570,878.81,1359.81,2195.00
571,878.93,1361.45,2247.00
572,879.06,1363.08,2403.00
573,879.19,1364.72,2495.00
574,879.31,1366.35,2538.00
575,879.44,1367.99,2602.00
576,879.57,1369.62,2561.00
577,879.69,1371.25,2578.00
578,879.82,1372.88,2507.00
579,879.95,1374.51,2376.00
580,880.07,1376.14,2255.00
581,880.20,1377.77,2197.00
582,880.32,1379.39,2110.00
583,880.45,1381.02,2064.00
584,880.58,1382.64,2009.00
585,880.70,1384.27,2003.00
586,880.83,1385.89,2002.00
587,880.95,1387.51,1954.00
588,881.08,1389.13,2007.00
589,881.20,1390.75,1984.00
590,881.33,1392.37,1948.00
591,881.46,1393.99,2003.00
592,881.58,1395.60,2024.00
593,881.71,1397.22,2001.00
594,881.83,1398.83,2005.00
595,881.96,1400.45,2093.00
596,882.08,1402.06,2184.00
597,882.21,1403.67,2247.00
598,882.33,1405.28,2403.00
599,882.46,1406.89,2600.00
600,882.58,1408.50,3048.00
601,882.71,1410.11,3722.00
602,882.84,1411.71,4484.00
603,882.96,1413.32,5226.00
604,883.09,1414.92,5669.00
605,883.21,1416.53,5885.00
606,883.34,1418.13,5781.00
607,883.46,1419.73,5485.00
608,883.59,1421.33,5060.00
609,883.71,1422.93,4659.00
610,883.84,1424.53,4473.00
611,883.96,1426.13,4600.00
612,884.09,1427.72,4925.00
613,884.21,1429.32,5452.00
614,884.33,1430.91,6263.00
615,884.46,1432.51,7246.00
616,884.58,1434.10,8433.00
617,884.71,1435.69,9521.00
618,884.83,1437.28,10545.00
619,884.96,1438.87,11043.00
620,885.08,1440.46,11140.00
621,885.21,1442.05,10637.00
622,885.33,1443.64,9841.00
623,885.45,1445.22,8872.00
624,885.58,1446.81,8093.00
625,885.70,1448.39,7503.00
626,885.83,1449.97,7164.00
627,885.95,1451.55,6824.00
628,886.08,1453.14,6839.00
629,886.20,1454.72,6944.00
630,886.32,1456.29,7006.00
631,886.45,1457.87,7200.00
632,886.57,1459.45,7199.00
633,886.70,1461.02,7202.00
634,886.82,1462.60,7069.00
635,886.94,1464.17,6765.00
636,887.07,1465.75,6495.00
637,887.19,1467.32,6034.00
638,887.31,1468.89,5517.00
639,887.44,1470.46,5073.00
640,887.56,1472.03,4571.00
641,887.68,1473.59,4079.00
642,887.81,1475.16,3749.00
643,887.93,1476.73,3422.00
644,888.06,1478.29,3129.00
645,888.18,1479.86,2945.00
646,888.30,1481.42,2758.00
647,888.43,1482.98,2650.00
648,888.55,1484.54,2549.00
649,888.67,1486.10,2405.00
650,888.79,1487.66,2342.00
651,888.92,1489.22,2279.00
652,889.04,1490.77,2250.00
653,889.16,1492.33,2142.00
654,889.29,1493.88,2076.00
655,889.41,1495.44,2085.00
656,889.53,1496.99,2017.00
657,889.66,1498.54,2028.00
658,889.78,1500.09,1952.00
659,889.90,1501.64,1963.00
660,890.02,1503.19,1925.00
661,890.15,1504.74,1927.00
662,890.27,1506.29,1868.00
663,890.39,1507.83,1879.00
664,890.51,1509.38,1838.00
665,890.64,1510.92,1784.00
666,890.76,1512.47,1851.00
667,890.88,1514.01,1843.00
668,891.00,1515.55,1866.00
669,891.13,1517.09,1779.00
670,891.25,1518.63,1817.00
671,891.37,1520.16,1817.00
672,891.49,1521.70,1799.00
673,891.61,1523.24,1807.00
674,891.74,1524.77,1785.00
675,891.86,1526.31,1800.00
676,891.98,1527.84,1796.00
677,892.10,1529.37,1758.00
678,892.22,1530.90,1760.00
679,892.35,1532.43,1758.00
680,892.47,1533.96,1767.00
681,892.59,1535.49,1767.00
682,892.71,1537.02,1745.00
683,892.83,1538.54,1752.00
684,892.95,1540.07,1737.00
685,893.08,1541.59,1686.00
686,893.20,1543.11,1733.00
687,893.32,1544.64,1733.00
688,893.44,1546.16,1742.00
689,893.56,1547.68,1714.00
690,893.68,1549.20,1739.00
691,893.80,1550.71,1720.00
692,893.92,1552.23,1735.00
693,894.05,1553.75,1756.00
694,894.17,1555.26,1733.00
695,894.29,1556.78,1704.00
696,894.41,1558.29,1708.00
697,894.53,1559.80,1712.00
698,894.65,1561.31,1721.00
699,894.77,1562.82,1676.00
700,894.89,1564.33,1676.00
701,895.01,1565.84,1632.00
702,895.13,1567.35,1620.00
703,895.26,1568.85,1634.00
704,895.38,1570.36,1634.00
705,895.50,1571.86,1670.00
706,895.62,1573.36,1621.00
707,895.74,1574.87,1631.00
708,895.86,1576.37,1643.00
709,895.98,1577.87,1651.00
710,896.10,1579.37,1646.00
711,896.22,1580.87,1619.00
712,896.34,1582.36,1604.00
713,896.46,1583.86,1583.00
714,896.58,1585.35,1592.00
715,896.70,1586.85,1592.00
716,896.82,1588.34,1556.00
717,896.94,1589.83,1575.00
718,897.06,1591.32,1574.00
719,897.18,1592.81,1585.00
720,897.30,1594.30,1571.00
721,897.42,1595.79,1558.00
722,897.54,1597.28,1561.00
723,897.66,1598.76,1539.00
724,897.78,1600.25,1552.00
725,897.90,1601.73,1551.00
726,898.02,1603.22,1537.00
727,898.14,1604.70,1550.00
728,898.26,1606.18,1529.00
729,898.38,1607.66,1498.00
730,898.50,1609.14,1510.00
731,898.62,1610.62,1486.00
732,898.73,1612.10,1507.00
733,898.85,1613.57,1482.00
734,898.97,1615.05,1507.00
735,899.09,1616.52,1498.00
736,899.21,1617.99,1486.00
737,899.33,1619.47,1480.00
738,899.45,1620.94,1471.00
739,899.57,1622.41,1461.00
740,899.69,1623.88,1448.00
741,899.81,1625.35,1468.00
742,899.92,1626.81,1462.00
743,900.04,1628.28,1459.00
744,900.16,1629.74,1476.00
745,900.28,1631.21,1446.00
746,900.40,1632.67,1442.00
747,900.52,1634.13,1448.00
748,900.64,1635.60,1445.00
749,900.76,1637.06,1466.00
750,900.87,1638.51,1463.00
751,900.99,1639.97,1495.00
752,901.11,1641.43,1472.00
753,901.23,1642.89,1472.00
754,901.35,1644.34,1491.00
755,901.46,1645.80,1429.00
756,901.58,1647.25,1438.00
757,901.70,1648.70,1395.00
758,901.82,1650.15,1425.00
759,901.94,1651.60,1400.00
760,902.05,1653.05,1356.00
761,902.17,1654.50,1393.00
762,902.29,1655.95,1377.00
763,902.41,1657.40,1391.00
764,902.53,1658.84,1355.00
765,902.64,1660.28,1370.00
766,902.76,1661.73,1387.00
767,902.88,1663.17,1358.00
768,903.00,1664.61,1381.00
769,903.11,1666.05,1341.00
770,903.23,1667.49,1351.00
771,903.35,1668.93,1345.00
772,903.47,1670.37,1379.00
773,903.58,1671.80,1340.00
774,903.70,1673.24,1322.00
775,903.82,1674.67,1378.00
776,903.93,1676.11,1311.00
777,904.05,1677.54,1327.00
778,904.17,1678.97,1341.00
779,904.29,1680.40,1352.00
780,904.40,1681.83,1310.00
781,904.52,1683.26,1295.00
782,904.64,1684.69,1282.00
783,904.75,1686.11,1307.00
784,904.87,1687.54,1313.00
785,904.99,1688.96,1286.00
786,905.10,1690.39,1267.00
787,905.22,1691.81,1299.00
788,905.34,1693.23,1283.00
789,905.45,1694.65,1246.00
790,905.57,1696.07,1256.00
791,905.69,1697.49,1251.00
792,905.80,1698.91,1254.00
793,905.92,1700.32,1269.00
794,906.03,1701.74,1284.00
795,906.15,1703.15,1269.00
796,906.27,1704.57,1286.00
797,906.38,1705.98,1235.00
798,906.50,1707.39,1276.00
799,906.61,1708.80,1265.00
800,906.73,1710.21,1248.00
801,906.85,1711.62,1256.00
802,906.96,1713.03,1248.00
803,907.08,1714.43,1229.00
804,907.19,1715.84,1232.00
805,907.31,1717.24,1206.00
806,907.42,1718.65,1227.00
807,907.54,1720.05,1267.00
808,907.65,1721.45,1227.00
809,907.77,1722.85,1248.00
810,907.89,1724.25,1213.00
811,908.00,1725.65,1212.00
812,908.12,1727.05,1229.00
813,908.23,1728.44,1229.00
814,908.35,1729.84,1183.00
815,908.46,1731.23,1225.00
816,908.58,1732.63,1231.00
817,908.69,1734.02,1168.00
818,908.81,1735.41,1187.00
819,908.92,1736.80,1181.00
820,909.04,1738.19,1182.00
821,909.15,1739.58,1210.00
822,909.27,1740.97,1197.00
823,909.38,1742.35,1179.00
824,909.49,1743.74,1157.00
825,909.61,1745.12,1179.00
826,909.72,1746.51,1164.00
827,909.84,1747.89,1168.00
828,909.95,1749.27,1194.00
829,910.07,1750.65,1168.00
830,910.18,1752.03,1151.00
831,910.30,1753.41,1145.00
832,910.41,1754.79,1156.00
833,910.52,1756.17,1143.00
834,910.64,1757.54,1170.00
835,910.75,1758.92,1157.00
836,910.87,1760.29,1141.00
837,910.98,1761.66,1142.00
838,911.09,1763.03,1128.00
839,911.21,1764.41,1126.00
840,911.32,1765.78,1130.00
841,911.43,1767.14,1160.00
842,911.55,1768.51,1135.00
843,911.66,1769.88,1154.00
844,911.78,1771.24,1132.00
845,911.89,1772.61,1086.00
846,912.00,1773.97,1145.00
847,912.12,1775.34,1107.00
848,912.23,1776.70,1115.00
849,912.34,1778.06,1117.00
850,912.46,1779.42,1107.00
851,912.57,1780.78,1109.00
852,912.68,1782.13,1097.00
853,912.79,1783.49,1105.00
854,912.91,1784.85,1108.00
855,913.02,1786.20,1092.00
856,913.13,1787.56,1088.00
857,913.25,1788.91,1125.00
858,913.36,1790.26,1079.00
859,913.47,1791.61,1096.00
860,913.58,1792.96,1088.00
861,913.70,1794.31,1075.00
862,913.81,1795.66,1056.00
863,913.92,1797.00,1105.00
864,914.03,1798.35,1044.00
865,914.15,1799.69,1054.00
866,914.26,1801.04,1063.00
867,914.37,1802.38,1058.00
868,914.48,1803.72,1050.00
869,914.60,1805.06,1050.00
870,914.71,1806.40,1054.00
871,914.82,1807.74,1043.00
872,914.93,1809.08,1047.00
873,915.04,1810.42,1035.00
874,915.16,1811.75,1033.00
875,915.27,1813.09,1071.00
876,915.38,1814.42,1041.00
877,915.49,1815.76,1027.00
878,915.60,1817.09,1004.00
879,915.71,1818.42,1040.00
880,915.83,1819.75,1031.00
881,915.94,1821.08,1010.00
882,916.05,1822.40,993.00
883,916.16,1823.73,981.00
884,916.27,1825.06,1016.00
885,916.38,1826.38,1012.00
886,916.49,1827.71,997.00
887,916.61,1829.03,1012.00
888,916.72,1830.35,983.00
889,916.83,1831.67,995.00
890,916.94,1832.99,993.00
891,917.05,1834.31,976.00
892,917.16,1835.63,990.00
893,917.27,1836.95,963.00
894,917.38,1838.26,955.00
895,917.49,1839.58,962.00
896,917.60,1840.89,945.00
897,917.71,1842.20,962.00
898,917.82,1843.52,963.00
899,917.93,1844.83,966.00
900,918.04,1846.14,942.00
901,918.15,1847.45,953.00
902,918.27,1848.75,957.00
903,918.38,1850.06,974.00
904,918.49,1851.37,932.00
905,918.60,1852.67,957.00
906,918.71,1853.98,922.00
907,918.82,1855.28,936.00
908,918.93,1856.58,942.00
909,919.04,1857.88,942.00
910,919.15,1859.18,935.00
911,919.26,1860.48,941.00
912,919.36,1861.78,944.00
913,919.47,1863.08,926.00
914,919.58,1864.37,924.00
915,919.69,1865.67,911.00
916,919.80,1866.96,917.00
917,919.91,1868.26,925.00
918,920.02,1869.55,900.00
919,920.13,1870.84,924.00
920,920.24,1872.13,938.00
921,920.35,1873.42,904.00
922,920.46,1874.71,891.00
923,920.57,1875.99,896.00
924,920.68,1877.28,901.00
925,920.79,1878.56,904.00
926,920.89,1879.85,905.00
927,921.00,1881.13,883.00
928,921.11,1882.41,864.00
929,921.22,1883.69,869.00
930,921.33,1884.97,873.00
931,921.44,1886.25,887.00
932,921.55,1887.53,877.00
933,921.66,1888.81,873.00
934,921.76,1890.09,864.00
935,921.87,1891.36,846.00
936,921.98,1892.63,866.00
937,922.09,1893.91,852.00
938,922.20,1895.18,862.00
939,922.30,1896.45,860.00
940,922.41,1897.72,869.00
941,922.52,1898.99,807.00
942,922.63,1900.26,870.00
943,922.74,1901.53,836.00
944,922.84,1902.79,842.00
945,922.95,1904.06,822.00
946,923.06,1905.32,821.00
947,923.17,1906.58,816.00
948,923.28,1907.85,829.00
949,923.38,1909.11,818.00
950,923.49,1910.37,806.00
951,923.60,1911.63,780.00
952,923.70,1912.89,807.00
953,923.81,1914.14,784.00
954,923.92,1915.40,824.00
955,924.03,1916.65,785.00
956,924.13,1917.91,787.00
957,924.24,1919.16,813.00
958,924.35,1920.41,807.00
959,924.45,1921.67,793.00
960,924.56,1922.92,786.00
961,924.67,1924.17,780.00
962,924.78,1925.41,763.00
963,924.88,1926.66,793.00
964,924.99,1927.91,801.00
965,925.09,1929.15,780.00
966,925.20,1930.40,774.00
967,925.31,1931.64,773.00
968,925.41,1932.88,755.00
969,925.52,1934.12,769.00
970,925.63,1935.36,763.00
971,925.73,1936.60,776.00
972,925.84,1937.84,765.00
973,925.95,1939.08,747.00
974,926.05,1940.32,780.00
975,926.16,1941.55,756.00
976,926.26,1942.79,721.00
977,926.37,1944.02,751.00
978,926.47,1945.25,748.00
979,926.58,1946.48,761.00
980,926.69,1947.71,736.00
981,926.79,1948.94,715.00
982,926.90,1950.17,721.00
983,927.00,1951.40,717.00
984,927.11,1952.62,769.00
985,927.21,1953.85,719.00
986,927.32,1955.07,734.00
987,927.42,1956.30,732.00
988,927.53,1957.52,730.00
989,927.63,1958.74,729.00
990,927.74,1959.96,706.00
991,927.84,1961.18,717.00
992,927.95,1962.40,719.00
993,928.05,1963.62,719.00
994,928.16,1964.83,710.00
995,928.26,1966.05,721.00
996,928.37,1967.26,704.00
997,928.47,1968.48,713.00
998,928.58,1969.69,717.00
999,928.68,1970.90,706.00
1000,928.79,1972.11,703.00
1001,928.89,1973.32,723.00
1002,928.99,1974.53,695.00
1003,929.10,1975.74,695.00
1004,929.20,1976.94,695.00
1005,929.31,1978.15,687.00
1006,929.41,1979.35,696.00
1007,929.52,1980.56,685.00
1008,929.62,1981.76,679.00
1009,929.72,1982.96,710.00
1010,929.83,1984.16,698.00
1011,929.93,1985.36,666.00
1012,930.03,1986.56,703.00
1013,930.14,1987.76,683.00
1014,930.24,1988.95,668.00
1015,930.34,1990.15,652.00
1016,930.45,1991.34,675.00
1017,930.55,1992.54,668.00
1018,930.65,1993.73,665.00
1019,930.76,1994.92,677.00
1020,930.86,1996.11,647.00
1021,930.96,1997.30,666.00
1022,931.07,1998.49,676.00
1023,931.17,1999.68,650.00
