ENLIGHTEN Version,1.7.2
Measurement ID,20190905-090333-468782-WP-00340
Serial Number,WP-00340
Label,HDPE-2
Integration Time,500
Timestamp,2019-09-05 09:03:33.468782
Note,
Temperature,10.010854111966182
CCD C0,801.7174072265625
CCD C1,0.14122000336647034
CCD C2,-5.609700110653648e-06
CCD C3,-8.541699791919655e-09
CCD Offset,0
CCD Gain,1.9
Laser Wavelength,785
Laser Enable,True
Laser Power,100
Laser Temperature,0
Pixel Count,1024

Pixel,Wavelength,Wavenumber,Processed
0,801.72,265.63,213.00
1,801.86,267.83,227.00
2,802.00,270.02,315.00
3,802.14,272.22,372.00
4,802.28,274.41,502.00
5,802.42,276.60,622.00
6,802.56,278.80,793.00
7,802.71,280.99,1050.00
8,802.85,283.18,1272.00
9,802.99,285.37,1571.00
10,803.13,287.55,1937.00
11,803.27,289.74,2277.00
12,803.41,291.93,2656.00
13,803.55,294.11,2977.00
14,803.69,296.30,3245.00
15,803.83,298.48,3524.00
16,803.98,300.66,3687.00
17,804.12,302.84,3834.00
18,804.26,305.02,3905.00
19,804.40,307.20,3946.00
20,804.54,309.38,4008.00
21,804.68,311.56,4010.00
22,804.82,313.74,4054.00
23,804.96,315.91,4019.00
24,805.10,318.09,3980.00
25,805.24,320.26,4107.00
26,805.39,322.43,4025.00
27,805.53,324.61,4069.00
28,805.67,326.78,4128.00
29,805.81,328.95,4140.00
30,805.95,331.12,4153.00
31,806.09,333.28,4197.00
32,806.23,335.45,4170.00
33,806.37,337.62,4160.00
34,806.51,339.78,4229.00
35,806.65,341.95,4210.00
36,806.79,344.11,4223.00
37,806.93,346.27,4191.00
38,807.08,348.43,4269.00
39,807.22,350.59,4256.00
40,807.36,352.75,4254.00
41,807.50,354.91,4254.00
42,807.64,357.07,4244.00
43,807.78,359.23,4233.00
44,807.92,361.38,4216.00
45,808.06,363.54,4210.00
46,808.20,365.69,4200.00
47,808.34,367.84,4160.00
48,808.48,370.00,4250.00
49,808.62,372.15,4252.00
50,808.76,374.30,4256.00
51,808.90,376.45,4282.00
52,809.04,378.59,4236.00
53,809.19,380.74,4274.00
54,809.33,382.89,4244.00
55,809.47,385.03,4229.00
56,809.61,387.18,4277.00
57,809.75,389.32,4330.00
58,809.89,391.46,4303.00
59,810.03,393.60,4303.00
60,810.17,395.74,4353.00
61,810.31,397.88,4328.00
62,810.45,400.02,4377.00
63,810.59,402.16,4356.00
64,810.73,404.29,4409.00
65,810.87,406.43,4366.00
66,811.01,408.57,4305.00
67,811.15,410.70,4332.00
68,811.29,412.83,4355.00
69,811.43,414.96,4385.00
70,811.57,417.09,4326.00
71,811.71,419.22,4288.00
72,811.85,421.35,4316.00
73,811.99,423.48,4362.00
74,812.13,425.61,4313.00
75,812.27,427.73,4336.00
76,812.41,429.86,4329.00
77,812.55,431.98,4318.00
78,812.69,434.11,4345.00
79,812.83,436.23,4261.00
80,812.97,438.35,4311.00
81,813.11,440.47,4328.00
82,813.26,442.59,4358.00
83,813.40,444.71,4361.00
84,813.54,446.82,4368.00
85,813.68,448.94,4340.00
86,813.82,451.05,4373.00
87,813.96,453.17,4339.00
88,814.10,455.28,4433.00
89,814.24,457.39,4322.00
90,814.38,459.51,4376.00
91,814.52,461.62,4415.00
92,814.66,463.73,4405.00
93,814.80,465.83,4409.00
94,814.94,467.94,4402.00
95,815.08,470.05,4433.00
96,815.22,472.15,4429.00
97,815.36,474.26,4444.00
98,815.50,476.36,4409.00
99,815.63,478.47,4476.00
100,815.77,480.57,4425.00
101,815.91,482.67,4415.00
102,816.05,484.77,4463.00
103,816.19,486.87,4446.00
104,816.33,488.97,4476.00
105,816.47,491.06,4451.00
106,816.61,493.16,4423.00
107,816.75,495.25,4442.00
108,816.89,497.35,4482.00
109,817.03,499.44,4446.00
110,817.17,501.53,4381.00
111,817.31,503.62,4336.00
112,817.45,505.71,4362.00
113,817.59,507.80,4366.00
114,817.73,509.89,4373.00
115,817.87,511.98,4391.00
116,818.01,514.07,4400.00
117,818.15,516.15,4385.00
118,818.29,518.24,4332.00
119,818.43,520.32,4377.00
120,818.57,522.40,4377.00
121,818.71,524.48,4446.00
122,818.85,526.56,4356.00
123,818.99,528.64,4385.00
124,819.13,530.72,4372.00
125,819.27,532.80,4386.00
126,819.40,534.88,4421.00
127,819.54,536.95,4402.00
128,819.68,539.03,4433.00
129,819.82,541.10,4387.00
130,819.96,543.17,4372.00
131,820.10,545.24,4414.00
132,820.24,547.32,4468.00
133,820.38,549.39,4423.00
134,820.52,551.45,4455.00
135,820.66,553.52,4434.00
136,820.80,555.59,4511.00
137,820.94,557.66,4377.00
138,821.08,559.72,4446.00
139,821.22,561.78,4448.00
140,821.35,563.85,4427.00
141,821.49,565.91,4456.00
142,821.63,567.97,4480.00
143,821.77,570.03,4436.00
144,821.91,572.09,4406.00
145,822.05,574.15,4408.00
146,822.19,576.21,4410.00
147,822.33,578.26,4431.00
148,822.47,580.32,4447.00
149,822.61,582.37,4415.00
150,822.75,584.42,4423.00
151,822.88,586.48,4421.00
152,823.02,588.53,4417.00
153,823.16,590.58,4478.00
154,823.30,592.63,4459.00
155,823.44,594.68,4375.00
156,823.58,596.72,4405.00
157,823.72,598.77,4457.00
158,823.86,600.82,4411.00
159,824.00,602.86,4406.00
160,824.13,604.90,4406.00
161,824.27,606.95,4394.00
162,824.41,608.99,4458.00
163,824.55,611.03,4408.00
164,824.69,613.07,4410.00
165,824.83,615.11,4381.00
166,824.97,617.15,4358.00
167,825.10,619.18,4381.00
168,825.24,621.22,4400.00
169,825.38,623.25,4375.00
170,825.52,625.29,4398.00
171,825.66,627.32,4360.00
172,825.80,629.35,4324.00
173,825.94,631.38,4429.00
174,826.07,633.41,4389.00
175,826.21,635.44,4387.00
176,826.35,637.47,4386.00
177,826.49,639.50,4342.00
178,826.63,641.52,4394.00
179,826.77,643.55,4444.00
180,826.91,645.57,4414.00
181,827.04,647.60,4419.00
182,827.18,649.62,4426.00
183,827.32,651.64,4384.00
184,827.46,653.66,4403.00
185,827.60,655.68,4374.00
186,827.74,657.70,4399.00
187,827.87,659.71,4437.00
188,828.01,661.73,4419.00
189,828.15,663.75,4478.00
190,828.29,665.76,4404.00
191,828.43,667.77,4395.00
192,828.56,669.79,4449.00
193,828.70,671.80,4456.00
194,828.84,673.81,4474.00
195,828.98,675.82,4457.00
196,829.12,677.83,4442.00
197,829.25,679.83,4489.00
198,829.39,681.84,4489.00
199,829.53,683.84,4526.00
200,829.67,685.85,4499.00
201,829.81,687.85,4524.00
202,829.94,689.86,4556.00
203,830.08,691.86,4528.00
204,830.22,693.86,4522.00
205,830.36,695.86,4514.00
206,830.50,697.86,4518.00
207,830.63,699.85,4533.00
208,830.77,701.85,4562.00
209,830.91,703.85,4567.00
210,831.05,705.84,4522.00
211,831.18,707.84,4630.00
212,831.32,709.83,4634.00
213,831.46,711.82,4630.00
214,831.60,713.81,4674.00
215,831.74,715.80,4744.00
216,831.87,717.79,4798.00
217,832.01,719.78,4792.00
218,832.15,721.76,4897.00
219,832.29,723.75,4779.00
220,832.42,725.74,4815.00
221,832.56,727.72,4816.00
222,832.70,729.70,4809.00
223,832.84,731.68,4727.00
224,832.97,733.67,4657.00
225,833.11,735.65,4704.00
226,833.25,737.62,4728.00
227,833.39,739.60,4676.00
228,833.52,741.58,4687.00
229,833.66,743.56,4674.00
230,833.80,745.53,4704.00
231,833.93,747.51,4754.00
232,834.07,749.48,4722.00
233,834.21,751.45,4776.00
234,834.35,753.42,4697.00
235,834.48,755.39,4800.00
236,834.62,757.36,4712.00
237,834.76,759.33,4679.00
238,834.89,761.30,4740.00
239,835.03,763.26,4739.00
240,835.17,765.23,4758.00
241,835.31,767.19,4824.00
242,835.44,769.16,4755.00
243,835.58,771.12,4754.00
244,835.72,773.08,4828.00
245,835.85,775.04,4841.00
246,835.99,777.00,4853.00
247,836.13,778.96,4813.00
248,836.26,780.92,4870.00
249,836.40,782.87,4845.00
250,836.54,784.83,4861.00
251,836.68,786.78,4906.00
252,836.81,788.74,4950.00
253,836.95,790.69,4903.00
254,837.09,792.64,4929.00
255,837.22,794.59,4910.00
256,837.36,796.54,4963.00
257,837.50,798.49,4969.00
258,837.63,800.44,4948.00
259,837.77,802.38,4964.00
260,837.91,804.33,4980.00
261,838.04,806.27,4996.00
262,838.18,808.22,4976.00
263,838.31,810.16,5042.00
264,838.45,812.10,5048.00
265,838.59,814.04,5007.00
266,838.72,815.98,5069.00
267,838.86,817.92,4990.00
268,839.00,819.86,5009.00
269,839.13,821.80,5020.00
270,839.27,823.73,5051.00
271,839.41,825.67,5107.00
272,839.54,827.60,5044.00
273,839.68,829.53,5133.00
274,839.81,831.47,5123.00
275,839.95,833.40,5100.00
276,840.09,835.33,5077.00
277,840.22,837.26,5136.00
278,840.36,839.18,5131.00
279,840.50,841.11,5157.00
280,840.63,843.04,5167.00
281,840.77,844.96,5243.00
282,840.90,846.89,5226.00
283,841.04,848.81,5262.00
284,841.18,850.73,5258.00
285,841.31,852.65,5319.00
286,841.45,854.57,5279.00
287,841.58,856.49,5351.00
288,841.72,858.41,5368.00
289,841.86,860.33,5431.00
290,841.99,862.24,5351.00
291,842.13,864.16,5335.00
292,842.26,866.07,5425.00
293,842.40,867.99,5467.00
294,842.53,869.90,5365.00
295,842.67,871.81,5394.00
296,842.81,873.72,5448.00
297,842.94,875.63,5428.00
298,843.08,877.54,5444.00
299,843.21,879.44,5439.00
300,843.35,881.35,5427.00
301,843.48,883.26,5401.00
302,843.62,885.16,5450.00
303,843.75,887.06,5392.00
304,843.89,888.97,5454.00
305,844.03,890.87,5423.00
306,844.16,892.77,5391.00
307,844.30,894.67,5353.00
308,844.43,896.57,5279.00
309,844.57,898.46,5334.00
310,844.70,900.36,5304.00
311,844.84,902.26,5258.00
312,844.97,904.15,5252.00
313,845.11,906.04,5179.00
314,845.24,907.94,5210.00
315,845.38,909.83,5169.00
316,845.51,911.72,5195.00
317,845.65,913.61,5192.00
318,845.78,915.50,5176.00
319,845.92,917.38,5151.00
320,846.05,919.27,5159.00
321,846.19,921.16,5178.00
322,846.32,923.04,5138.00
323,846.46,924.92,5138.00
324,846.59,926.81,5157.00
325,846.73,928.69,5112.00
326,846.86,930.57,5134.00
327,847.00,932.45,5096.00
328,847.13,934.33,4996.00
329,847.27,936.20,5020.00
330,847.40,938.08,5014.00
331,847.54,939.96,4967.00
332,847.67,941.83,4915.00
333,847.81,943.71,4929.00
334,847.94,945.58,4935.00
335,848.08,947.45,4843.00
336,848.21,949.32,4906.00
337,848.34,951.19,4909.00
338,848.48,953.06,4796.00
339,848.61,954.93,4874.00
340,848.75,956.79,4870.00
341,848.88,958.66,4847.00
342,849.02,960.52,4864.00
343,849.15,962.39,4784.00
344,849.29,964.25,4826.00
345,849.42,966.11,4866.00
346,849.55,967.97,4832.00
347,849.69,969.83,4845.00
348,849.82,971.69,4778.00
349,849.96,973.55,4857.00
350,850.09,975.41,4815.00
351,850.23,977.26,4811.00
352,850.36,979.12,4843.00
353,850.49,980.97,4795.00
354,850.63,982.82,4828.00
355,850.76,984.68,4827.00
356,850.90,986.53,4847.00
357,851.03,988.38,4832.00
358,851.16,990.23,4904.00
359,851.30,992.07,4872.00
360,851.43,993.92,4894.00
361,851.56,995.77,4903.00
362,851.70,997.61,5009.00
363,851.83,999.46,4908.00
364,851.97,1001.30,4929.00
365,852.10,1003.14,4996.00
366,852.23,1004.98,4994.00
367,852.37,1006.82,5041.00
368,852.50,1008.66,5067.00
369,852.63,1010.50,5053.00
370,852.77,1012.34,5069.00
371,852.90,1014.17,5165.00
372,853.04,1016.01,5189.00
373,853.17,1017.84,5180.00
374,853.30,1019.68,5135.00
375,853.44,1021.51,5146.00
376,853.57,1023.34,5153.00
377,853.70,1025.17,5193.00
378,853.84,1027.00,5207.00
379,853.97,1028.83,5256.00
380,854.10,1030.65,5263.00
381,854.24,1032.48,5252.00
382,854.37,1034.31,5334.00
383,854.50,1036.13,5418.00
384,854.64,1037.95,5505.00
385,854.77,1039.77,5557.00
386,854.90,1041.60,5610.00
387,855.03,1043.42,5713.00
388,855.17,1045.24,5853.00
389,855.30,1047.05,6164.00
390,855.43,1048.87,6551.00
391,855.57,1050.69,7242.00
392,855.70,1052.50,8496.00
393,855.83,1054.32,10421.00
394,855.96,1056.13,13223.00
395,856.10,1057.94,15919.00
396,856.23,1059.75,18004.00
397,856.36,1061.56,19052.00
398,856.50,1063.37,18350.00
399,856.63,1065.18,16486.00
400,856.76,1066.99,13771.00
401,856.89,1068.80,11175.00
402,857.03,1070.60,9327.00
403,857.16,1072.41,8277.00
404,857.29,1074.21,7685.00
405,857.42,1076.01,7590.00
406,857.56,1077.81,7387.00
407,857.69,1079.61,7409.00
408,857.82,1081.41,7406.00
409,857.95,1083.21,7217.00
410,858.09,1085.01,7253.00
411,858.22,1086.81,7107.00
412,858.35,1088.60,6932.00
413,858.48,1090.40,6772.00
414,858.61,1092.19,6693.00
415,858.75,1093.98,6459.00
416,858.88,1095.77,6322.00
417,859.01,1097.56,6187.00
418,859.14,1099.35,6080.00
419,859.28,1101.14,6011.00
420,859.41,1102.93,6026.00
421,859.54,1104.72,6031.00
422,859.67,1106.50,6071.00
423,859.80,1108.29,6188.00
424,859.94,1110.07,6348.00
425,860.07,1111.85,6419.00
426,860.20,1113.63,6755.00
427,860.33,1115.41,7180.00
428,860.46,1117.19,7818.00
429,860.59,1118.97,9002.00
430,860.73,1120.75,10765.00
431,860.86,1122.53,13537.00
432,860.99,1124.30,16556.00
433,861.12,1126.08,19303.00
434,861.25,1127.85,20861.00
435,861.38,1129.62,20720.00
436,861.51,1131.39,18892.00
437,861.65,1133.17,15759.00
438,861.78,1134.93,12578.00
439,861.91,1136.70,9734.00
440,862.04,1138.47,8029.00
441,862.17,1140.24,6989.00
442,862.30,1142.00,6366.00
443,862.43,1143.77,5994.00
444,862.57,1145.53,5798.00
445,862.70,1147.29,5608.00
446,862.83,1149.06,5566.00
447,862.96,1150.82,5465.00
448,863.09,1152.58,5458.00
449,863.22,1154.34,5450.00
450,863.35,1156.09,5507.00
451,863.48,1157.85,5490.00
452,863.61,1159.61,5698.00
453,863.74,1161.36,5886.00
454,863.88,1163.11,6225.00
455,864.01,1164.87,6671.00
456,864.14,1166.62,7005.00
457,864.27,1168.37,7250.00
458,864.40,1170.12,7180.00
459,864.53,1171.87,6961.00
460,864.66,1173.62,6405.00
461,864.79,1175.36,5923.00
462,864.92,1177.11,5547.00
463,865.05,1178.85,5287.00
464,865.18,1180.60,5117.00
465,865.31,1182.34,5007.00
466,865.44,1184.08,4981.00
467,865.57,1185.82,4959.00
468,865.70,1187.56,4843.00
469,865.83,1189.30,4821.00
470,865.96,1191.04,4828.00
471,866.10,1192.78,4801.00
472,866.23,1194.51,4809.00
473,866.36,1196.25,4727.00
474,866.49,1197.98,4721.00
475,866.62,1199.71,4721.00
476,866.75,1201.45,4708.00
477,866.88,1203.18,4731.00
478,867.01,1204.91,4682.00
479,867.14,1206.64,4659.00
480,867.27,1208.36,4680.00
481,867.40,1210.09,4725.00
482,867.53,1211.82,4653.00
483,867.66,1213.54,4720.00
484,867.79,1215.27,4631.00
485,867.92,1216.99,4661.00
486,868.04,1218.71,4685.00
487,868.17,1220.43,4682.00
488,868.30,1222.15,4672.00
489,868.43,1223.87,4686.00
490,868.56,1225.59,4711.00
491,868.69,1227.31,4775.00
492,868.82,1229.02,4720.00
493,868.95,1230.74,4754.00
494,869.08,1232.45,4747.00
495,869.21,1234.16,4695.00
496,869.34,1235.88,4694.00
497,869.47,1237.59,4693.00
498,869.60,1239.30,4735.00
499,869.73,1241.01,4723.00
500,869.86,1242.71,4701.00
501,869.99,1244.42,4760.00
502,870.12,1246.13,4735.00
503,870.24,1247.83,4832.00
504,870.37,1249.54,4897.00
505,870.50,1251.24,4934.00
506,870.63,1252.94,4921.00
507,870.76,1254.64,4971.00
508,870.89,1256.34,5038.00
509,871.02,1258.04,5146.00
510,871.15,1259.74,5234.00
511,871.28,1261.44,5361.00
512,871.41,1263.13,5481.00
513,871.53,1264.83,5549.00
514,871.66,1266.52,5633.00
515,871.79,1268.22,5702.00
516,871.92,1269.91,5698.00
517,872.05,1271.60,5794.00
518,872.18,1273.29,5823.00
519,872.31,1274.98,5899.00
520,872.43,1276.67,5973.00
521,872.56,1278.35,6082.00
522,872.69,1280.04,6251.00
523,872.82,1281.73,6698.00
524,872.95,1283.41,7238.00
525,873.08,1285.09,8538.00
526,873.20,1286.78,10834.00
527,873.33,1288.46,14538.00
528,873.46,1290.14,18938.00
529,873.59,1291.82,23201.00
530,873.72,1293.49,24693.00
531,873.84,1295.17,26186.00
532,873.97,1296.85,24321.00
533,874.10,1298.52,20633.00
534,874.23,1300.20,16497.00
535,874.36,1301.87,12913.00
536,874.48,1303.54,10562.00
537,874.61,1305.21,9190.00
538,874.74,1306.88,8332.00
539,874.87,1308.55,7862.00
540,875.00,1310.22,7318.00
541,875.12,1311.89,6980.00
542,875.25,1313.56,6674.00
543,875.38,1315.22,6396.00
544,875.51,1316.89,6034.00
545,875.63,1318.55,5913.00
546,875.76,1320.21,5682.00
547,875.89,1321.87,5525.00
548,876.02,1323.53,5454.00
549,876.14,1325.19,5256.00
550,876.27,1326.85,5133.00
551,876.40,1328.51,4975.00
552,876.52,1330.16,4824.00
553,876.65,1331.82,4796.00
554,876.78,1333.47,4748.00
555,876.91,1335.13,4686.00
556,877.03,1336.78,4619.00
557,877.16,1338.43,4543.00
558,877.29,1340.08,4569.00
559,877.41,1341.73,4531.00
560,877.54,1343.38,4536.00
561,877.67,1345.03,4457.00
562,877.80,1346.67,4556.00
563,877.92,1348.32,4575.00
564,878.05,1349.96,4549.00
565,878.18,1351.61,4475.00
566,878.30,1353.25,4484.00
567,878.43,1354.89,4530.00
568,878.56,1356.53,4545.00
569,878.68,1358.17,4682.00
570,878.81,1359.81,4744.00
571,878.93,1361.45,4874.00
572,879.06,1363.08,5022.00
573,879.19,1364.72,5258.00
574,879.31,1366.35,5400.00
575,879.44,1367.99,5539.00
576,879.57,1369.62,5540.00
577,879.69,1371.25,5440.00
578,879.82,1372.88,5243.00
579,879.95,1374.51,5053.00
580,880.07,1376.14,4858.00
581,880.20,1377.77,4638.00
582,880.32,1379.39,4488.00
583,880.45,1381.02,4376.00
584,880.58,1382.64,4343.00
585,880.70,1384.27,4313.00
586,880.83,1385.89,4265.00
587,880.95,1387.51,4254.00
588,881.08,1389.13,4244.00
589,881.20,1390.75,4269.00
590,881.33,1392.37,4346.00
591,881.46,1393.99,4324.00
592,881.58,1395.60,4330.00
593,881.71,1397.22,4407.00
594,881.83,1398.83,4469.00
595,881.96,1400.45,4526.00
596,882.08,1402.06,4642.00
597,882.21,1403.67,4828.00
598,882.33,1405.28,5157.00
599,882.46,1406.89,5642.00
600,882.58,1408.50,6614.00
601,882.71,1410.11,7862.00
602,882.84,1411.71,9243.00
603,882.96,1413.32,10724.00
604,883.09,1414.92,11692.00
605,883.21,1416.53,12017.00
606,883.34,1418.13,11808.00
607,883.46,1419.73,11130.00
608,883.59,1421.33,10155.00
609,883.71,1422.93,9643.00
610,883.84,1424.53,9462.00
611,883.96,1426.13,9618.00
612,884.09,1427.72,10364.00
613,884.21,1429.32,11528.00
614,884.33,1430.91,13067.00
615,884.46,1432.51,15249.00
616,884.58,1434.10,17528.00
617,884.71,1435.69,19813.00
618,884.83,1437.28,21597.00
619,884.96,1438.87,22577.00
620,885.08,1440.46,22450.00
621,885.21,1442.05,21466.00
622,885.33,1443.64,19828.00
623,885.45,1445.22,17915.00
624,885.58,1446.81,16391.00
625,885.70,1448.39,15161.00
626,885.83,1449.97,14496.00
627,885.95,1451.55,14132.00
628,886.08,1453.14,14096.00
629,886.20,1454.72,14113.00
630,886.32,1456.29,14408.00
631,886.45,1457.87,14526.00
632,886.57,1459.45,14646.00
633,886.70,1461.02,14678.00
634,886.82,1462.60,14350.00
635,886.94,1464.17,13912.00
636,887.07,1465.75,13227.00
637,887.19,1467.32,12262.00
638,887.31,1468.89,11344.00
639,887.44,1470.46,10360.00
640,887.56,1472.03,9356.00
641,887.68,1473.59,8597.00
642,887.81,1475.16,7773.00
643,887.93,1476.73,7098.00
644,888.06,1478.29,6650.00
645,888.18,1479.86,6158.00
646,888.30,1481.42,5762.00
647,888.43,1482.98,5526.00
648,888.55,1484.54,5273.00
649,888.67,1486.10,5133.00
650,888.79,1487.66,4991.00
651,888.92,1489.22,4849.00
652,889.04,1490.77,4800.00
653,889.16,1492.33,4655.00
654,889.29,1493.88,4551.00
655,889.41,1495.44,4463.00
656,889.53,1496.99,4465.00
657,889.66,1498.54,4389.00
658,889.78,1500.09,4296.00
659,889.90,1501.64,4246.00
660,890.02,1503.19,4195.00
661,890.15,1504.74,4184.00
662,890.27,1506.29,4063.00
663,890.39,1507.83,4060.00
664,890.51,1509.38,4052.00
665,890.64,1510.92,3991.00
666,890.76,1512.47,3924.00
667,890.88,1514.01,3997.00
668,891.00,1515.55,3972.00
669,891.13,1517.09,3929.00
670,891.25,1518.63,3883.00
671,891.37,1520.16,3932.00
672,891.49,1521.70,3897.00
673,891.61,1523.24,3875.00
674,891.74,1524.77,3863.00
675,891.86,1526.31,3869.00
676,891.98,1527.84,3812.00
677,892.10,1529.37,3865.00
678,892.22,1530.90,3873.00
679,892.35,1532.43,3773.00
680,892.47,1533.96,3810.00
681,892.59,1535.49,3784.00
682,892.71,1537.02,3790.00
683,892.83,1538.54,3731.00
684,892.95,1540.07,3803.00
685,893.08,1541.59,3750.00
686,893.20,1543.11,3728.00
687,893.32,1544.64,3797.00
688,893.44,1546.16,3733.00
689,893.56,1547.68,3759.00
690,893.68,1549.20,3655.00
691,893.80,1550.71,3694.00
692,893.92,1552.23,3752.00
693,894.05,1553.75,3706.00
694,894.17,1555.26,3737.00
695,894.29,1556.78,3700.00
696,894.41,1558.29,3675.00
697,894.53,1559.80,3673.00
698,894.65,1561.31,3620.00
699,894.77,1562.82,3622.00
700,894.89,1564.33,3597.00
701,895.01,1565.84,3575.00
702,895.13,1567.35,3608.00
703,895.26,1568.85,3533.00
704,895.38,1570.36,3584.00
705,895.50,1571.86,3555.00
706,895.62,1573.36,3586.00
707,895.74,1574.87,3475.00
708,895.86,1576.37,3497.00
709,895.98,1577.87,3483.00
710,896.10,1579.37,3517.00
711,896.22,1580.87,3483.00
712,896.34,1582.36,3465.00
713,896.46,1583.86,3489.00
714,896.58,1585.35,3434.00
715,896.70,1586.85,3443.00
716,896.82,1588.34,3447.00
717,896.94,1589.83,3451.00
718,897.06,1591.32,3445.00
719,897.18,1592.81,3422.00
720,897.30,1594.30,3438.00
721,897.42,1595.79,3390.00
722,897.54,1597.28,3397.00
723,897.66,1598.76,3348.00
724,897.78,1600.25,3396.00
725,897.90,1601.73,3392.00
726,898.02,1603.22,3333.00
727,898.14,1604.70,3327.00
728,898.26,1606.18,3319.00
729,898.38,1607.66,3388.00
730,898.50,1609.14,3308.00
731,898.62,1610.62,3329.00
732,898.73,1612.10,3291.00
733,898.85,1613.57,3251.00
734,898.97,1615.05,3308.00
735,899.09,1616.52,3312.00
736,899.21,1617.99,3221.00
737,899.33,1619.47,3206.00
738,899.45,1620.94,3194.00
739,899.57,1622.41,3263.00
740,899.69,1623.88,3186.00
741,899.81,1625.35,3204.00
742,899.92,1626.81,3194.00
743,900.04,1628.28,3215.00
744,900.16,1629.74,3156.00
745,900.28,1631.21,3171.00
746,900.40,1632.67,3217.00
747,900.52,1634.13,3167.00
748,900.64,1635.60,3205.00
749,900.76,1637.06,3191.00
750,900.87,1638.51,3230.00
751,900.99,1639.97,3170.00
752,901.11,1641.43,3202.00
753,901.23,1642.89,3172.00
754,901.35,1644.34,3186.00
755,901.46,1645.80,3144.00
756,901.58,1647.25,3160.00
757,901.70,1648.70,3078.00
758,901.82,1650.15,3066.00
759,901.94,1651.60,3059.00
760,902.05,1653.05,3031.00
761,902.17,1654.50,2998.00
762,902.29,1655.95,2990.00
763,902.41,1657.40,3025.00
764,902.53,1658.84,2998.00
765,902.64,1660.28,3003.00
766,902.76,1661.73,2964.00
767,902.88,1663.17,3028.00
768,903.00,1664.61,2979.00
769,903.11,1666.05,2933.00
770,903.23,1667.49,2958.00
771,903.35,1668.93,2920.00
772,903.47,1670.37,2939.00
773,903.58,1671.80,2917.00
774,903.70,1673.24,2948.00
775,903.82,1674.67,2906.00
776,903.93,1676.11,2923.00
777,904.05,1677.54,2890.00
778,904.17,1678.97,2889.00
779,904.29,1680.40,2872.00
780,904.40,1681.83,2863.00
781,904.52,1683.26,2870.00
782,904.64,1684.69,2888.00
783,904.75,1686.11,2882.00
784,904.87,1687.54,2842.00
785,904.99,1688.96,2821.00
786,905.10,1690.39,2861.00
787,905.22,1691.81,2846.00
788,905.34,1693.23,2821.00
789,905.45,1694.65,2812.00
790,905.57,1696.07,2817.00
791,905.69,1697.49,2817.00
792,905.80,1698.91,2816.00
793,905.92,1700.32,2797.00
794,906.03,1701.74,2758.00
795,906.15,1703.15,2764.00
796,906.27,1704.57,2789.00
797,906.38,1705.98,2774.00
798,906.50,1707.39,2730.00
799,906.61,1708.80,2739.00
800,906.73,1710.21,2749.00
801,906.85,1711.62,2728.00
802,906.96,1713.03,2749.00
803,907.08,1714.43,2732.00
804,907.19,1715.84,2694.00
805,907.31,1717.24,2671.00
806,907.42,1718.65,2728.00
807,907.54,1720.05,2712.00
808,907.65,1721.45,2726.00
809,907.77,1722.85,2681.00
810,907.89,1724.25,2747.00
811,908.00,1725.65,2656.00
812,908.12,1727.05,2654.00
813,908.23,1728.44,2646.00
814,908.35,1729.84,2684.00
815,908.46,1731.23,2654.00
816,908.58,1732.63,2663.00
817,908.69,1734.02,2643.00
818,908.81,1735.41,2660.00
819,908.92,1736.80,2629.00
820,909.04,1738.19,2610.00
821,909.15,1739.58,2631.00
822,909.27,1740.97,2665.00
823,909.38,1742.35,2650.00
824,909.49,1743.74,2627.00
825,909.61,1745.12,2627.00
826,909.72,1746.51,2625.00
827,909.84,1747.89,2581.00
828,909.95,1749.27,2560.00
829,910.07,1750.65,2572.00
830,910.18,1752.03,2616.00
831,910.30,1753.41,2546.00
832,910.41,1754.79,2583.00
833,910.52,1756.17,2586.00
834,910.64,1757.54,2545.00
835,910.75,1758.92,2543.00
836,910.87,1760.29,2528.00
837,910.98,1761.66,2532.00
838,911.09,1763.03,2521.00
839,911.21,1764.41,2538.00
840,911.32,1765.78,2499.00
841,911.43,1767.14,2543.00
842,911.55,1768.51,2490.00
843,911.66,1769.88,2481.00
844,911.78,1771.24,2485.00
845,911.89,1772.61,2494.00
846,912.00,1773.97,2475.00
847,912.12,1775.34,2492.00
848,912.23,1776.70,2429.00
849,912.34,1778.06,2479.00
850,912.46,1779.42,2447.00
851,912.57,1780.78,2475.00
852,912.68,1782.13,2471.00
853,912.79,1783.49,2416.00
854,912.91,1784.85,2400.00
855,913.02,1786.20,2433.00
856,913.13,1787.56,2370.00
857,913.25,1788.91,2391.00
858,913.36,1790.26,2407.00
859,913.47,1791.61,2373.00
860,913.58,1792.96,2384.00
861,913.70,1794.31,2379.00
862,913.81,1795.66,2363.00
863,913.92,1797.00,2429.00
864,914.03,1798.35,2338.00
865,914.15,1799.69,2397.00
866,914.26,1801.04,2378.00
867,914.37,1802.38,2367.00
868,914.48,1803.72,2313.00
869,914.60,1805.06,2327.00
870,914.71,1806.40,2315.00
871,914.82,1807.74,2347.00
872,914.93,1809.08,2277.00
873,915.04,1810.42,2300.00
874,915.16,1811.75,2317.00
875,915.27,1813.09,2291.00
876,915.38,1814.42,2269.00
877,915.49,1815.76,2289.00
878,915.60,1817.09,2294.00
879,915.71,1818.42,2275.00
880,915.83,1819.75,2268.00
881,915.94,1821.08,2259.00
882,916.05,1822.40,2212.00
883,916.16,1823.73,2194.00
884,916.27,1825.06,2254.00
885,916.38,1826.38,2205.00
886,916.49,1827.71,2217.00
887,916.61,1829.03,2266.00
888,916.72,1830.35,2216.00
889,916.83,1831.67,2233.00
890,916.94,1832.99,2155.00
891,917.05,1834.31,2199.00
892,917.16,1835.63,2174.00
893,917.27,1836.95,2171.00
894,917.38,1838.26,2136.00
895,917.49,1839.58,2132.00
896,917.60,1840.89,2161.00
897,917.71,1842.20,2182.00
898,917.82,1843.52,2159.00
899,917.93,1844.83,2133.00
900,918.04,1846.14,2098.00
901,918.15,1847.45,2116.00
902,918.27,1848.75,2146.00
903,918.38,1850.06,2125.00
904,918.49,1851.37,2097.00
905,918.60,1852.67,2080.00
906,918.71,1853.98,2097.00
907,918.82,1855.28,2128.00
908,918.93,1856.58,2061.00
909,919.04,1857.88,2056.00
910,919.15,1859.18,2083.00
911,919.26,1860.48,2072.00
912,919.36,1861.78,2081.00
913,919.47,1863.08,2079.00
914,919.58,1864.37,2049.00
915,919.69,1865.67,2023.00
916,919.80,1866.96,2051.00
917,919.91,1868.26,2039.00
918,920.02,1869.55,2056.00
919,920.13,1870.84,1988.00
920,920.24,1872.13,2001.00
921,920.35,1873.42,2001.00
922,920.46,1874.71,1988.00
923,920.57,1875.99,2010.00
924,920.68,1877.28,1990.00
925,920.79,1878.56,1997.00
926,920.89,1879.85,1944.00
927,921.00,1881.13,1979.00
928,921.11,1882.41,1972.00
929,921.22,1883.69,1942.00
930,921.33,1884.97,1959.00
931,921.44,1886.25,1925.00
932,921.55,1887.53,1877.00
933,921.66,1888.81,1906.00
934,921.76,1890.09,1927.00
935,921.87,1891.36,1927.00
936,921.98,1892.63,1926.00
937,922.09,1893.91,1893.00
938,922.20,1895.18,1870.00
939,922.30,1896.45,1908.00
940,922.41,1897.72,1878.00
941,922.52,1898.99,1872.00
942,922.63,1900.26,1870.00
943,922.74,1901.53,1834.00
944,922.84,1902.79,1862.00
945,922.95,1904.06,1860.00
946,923.06,1905.32,1823.00
947,923.17,1906.58,1800.00
948,923.28,1907.85,1839.00
949,923.38,1909.11,1785.00
950,923.49,1910.37,1816.00
951,923.60,1911.63,1801.00
952,923.70,1912.89,1788.00
953,923.81,1914.14,1800.00
954,923.92,1915.40,1800.00
955,924.03,1916.65,1792.00
956,924.13,1917.91,1780.00
957,924.24,1919.16,1764.00
958,924.35,1920.41,1792.00
959,924.45,1921.67,1750.00
960,924.56,1922.92,1749.00
961,924.67,1924.17,1790.00
962,924.78,1925.41,1746.00
963,924.88,1926.66,1758.00
964,924.99,1927.91,1760.00
965,925.09,1929.15,1766.00
966,925.20,1930.40,1735.00
967,925.31,1931.64,1714.00
968,925.41,1932.88,1744.00
969,925.52,1934.12,1714.00
970,925.63,1935.36,1708.00
971,925.73,1936.60,1732.00
972,925.84,1937.84,1701.00
973,925.95,1939.08,1712.00
974,926.05,1940.32,1725.00
975,926.16,1941.55,1737.00
976,926.26,1942.79,1688.00
977,926.37,1944.02,1702.00
978,926.47,1945.25,1698.00
979,926.58,1946.48,1684.00
980,926.69,1947.71,1695.00
981,926.79,1948.94,1687.00
982,926.90,1950.17,1689.00
983,927.00,1951.40,1663.00
984,927.11,1952.62,1662.00
985,927.21,1953.85,1625.00
986,927.32,1955.07,1657.00
987,927.42,1956.30,1627.00
988,927.53,1957.52,1640.00
989,927.63,1958.74,1614.00
990,927.74,1959.96,1638.00
991,927.84,1961.18,1683.00
992,927.95,1962.40,1602.00
993,928.05,1963.62,1648.00
994,928.16,1964.83,1617.00
995,928.26,1966.05,1606.00
996,928.37,1967.26,1624.00
997,928.47,1968.48,1624.00
998,928.58,1969.69,1592.00
999,928.68,1970.90,1550.00
1000,928.79,1972.11,1585.00
1001,928.89,1973.32,1568.00
1002,928.99,1974.53,1587.00
1003,929.10,1975.74,1594.00
1004,929.20,1976.94,1550.00
1005,929.31,1978.15,1545.00
1006,929.41,1979.35,1562.00
1007,929.52,1980.56,1548.00
1008,929.62,1981.76,1583.00
1009,929.72,1982.96,1543.00
1010,929.83,1984.16,1520.00
1011,929.93,1985.36,1533.00
1012,930.03,1986.56,1531.00
1013,930.14,1987.76,1549.00
1014,930.24,1988.95,1494.00
1015,930.34,1990.15,1530.00
1016,930.45,1991.34,1485.00
1017,930.55,1992.54,1501.00
1018,930.65,1993.73,1506.00
1019,930.76,1994.92,1526.00
1020,930.86,1996.11,1468.00
1021,930.96,1997.30,1482.00
1022,931.07,1998.49,1466.00
1023,931.17,1999.68,1509.00
