ENLIGHTEN Version,1.7.2
Measurement ID,20190905-085852-545160-WP-00340
Serial Number,WP-00340
Label,Ibuprofen-NoBaseline-2
Integration Time,400
Timestamp,2019-09-05 08:58:52.545160
Note,
Temperature,10.027889651658995
CCD C0,801.7174072265625
CCD C1,0.14122000336647034
CCD C2,-5.609700110653648e-06
CCD C3,-8.541699791919655e-09
CCD Offset,0
CCD Gain,1.9
Laser Wavelength,785
Laser Enable,True
Laser Power,100
Laser Temperature,0
Pixel Count,1024

Pixel,Wavelength,Wavenumber,Processed
0,801.72,265.63,156.00
1,801.86,267.83,177.00
2,802.00,270.02,203.00
3,802.14,272.22,236.00
4,802.28,274.41,270.00
5,802.42,276.60,315.00
6,802.56,278.80,395.00
7,802.71,280.99,480.00
8,802.85,283.18,569.00
9,802.99,285.37,685.00
10,803.13,287.55,771.00
11,803.27,289.74,904.00
12,803.41,291.93,1151.00
13,803.55,294.11,1337.00
14,803.69,296.30,1551.00
15,803.83,298.48,1840.00
16,803.98,300.66,2171.00
17,804.12,302.84,2451.00
18,804.26,305.02,2730.00
19,804.40,307.20,2804.00
20,804.54,309.38,2724.00
21,804.68,311.56,2517.00
22,804.82,313.74,2227.00
23,804.96,315.91,2050.00
24,805.10,318.09,1857.00
25,805.24,320.26,1859.00
26,805.39,322.43,1779.00
27,805.53,324.61,1843.00
28,805.67,326.78,1782.00
29,805.81,328.95,1794.00
30,805.95,331.12,1807.00
31,806.09,333.28,1792.00
32,806.23,335.45,1714.00
33,806.37,337.62,1596.00
34,806.51,339.78,1563.00
35,806.65,341.95,1651.00
36,806.79,344.11,1703.00
37,806.93,346.27,1790.00
38,807.08,348.43,2056.00
39,807.22,350.59,2199.00
40,807.36,352.75,2511.00
41,807.50,354.91,2711.00
42,807.64,357.07,2819.00
43,807.78,359.23,2927.00
44,807.92,361.38,2743.00
45,808.06,363.54,2488.00
46,808.20,365.69,2142.00
47,808.34,367.84,1783.00
48,808.48,370.00,1665.00
49,808.62,372.15,1537.00
50,808.76,374.30,1558.00
51,808.90,376.45,1539.00
52,809.04,378.59,1592.00
53,809.19,380.74,1644.00
54,809.33,382.89,1601.00
55,809.47,385.03,1596.00
56,809.61,387.18,1383.00
57,809.75,389.32,1382.00
58,809.89,391.46,1250.00
59,810.03,393.60,1242.00
60,810.17,395.74,1168.00
61,810.31,397.88,1119.00
62,810.45,400.02,1208.00
63,810.59,402.16,1187.00
64,810.73,404.29,1385.00
65,810.87,406.43,1617.00
66,811.01,408.57,1935.00
67,811.15,410.70,2401.00
68,811.29,412.83,2996.00
69,811.43,414.96,3581.00
70,811.57,417.09,3981.00
71,811.71,419.22,4105.00
72,811.85,421.35,3934.00
73,811.99,423.48,3610.00
74,812.13,425.61,3228.00
75,812.27,427.73,2945.00
76,812.41,429.86,2703.00
77,812.55,431.98,2595.00
78,812.69,434.11,2254.00
79,812.83,436.23,2043.00
80,812.97,438.35,1731.00
81,813.11,440.47,1482.00
82,813.26,442.59,1240.00
83,813.40,444.71,1061.00
84,813.54,446.82,917.00
85,813.68,448.94,842.00
86,813.82,451.05,797.00
87,813.96,453.17,769.00
88,814.10,455.28,658.00
89,814.24,457.39,696.00
90,814.38,459.51,652.00
91,814.52,461.62,664.00
92,814.66,463.73,624.00
93,814.80,465.83,704.00
94,814.94,467.94,655.00
95,815.08,470.05,683.00
96,815.22,472.15,691.00
97,815.36,474.26,677.00
98,815.50,476.36,757.00
99,815.63,478.47,731.00
100,815.77,480.57,783.00
101,815.91,482.67,831.00
102,816.05,484.77,962.00
103,816.19,486.87,1160.00
104,816.33,488.97,1385.00
105,816.47,491.06,1556.00
106,816.61,493.16,1879.00
107,816.75,495.25,1901.00
108,816.89,497.35,2004.00
109,817.03,499.44,1972.00
110,817.17,501.53,1735.00
111,817.31,503.62,1613.00
112,817.45,505.71,1528.00
113,817.59,507.80,1532.00
114,817.73,509.89,1661.00
115,817.87,511.98,1820.00
116,818.01,514.07,1739.00
117,818.15,516.15,1714.00
118,818.29,518.24,1529.00
119,818.43,520.32,1252.00
120,818.57,522.40,1042.00
121,818.71,524.48,900.00
122,818.85,526.56,786.00
123,818.99,528.64,694.00
124,819.13,530.72,649.00
125,819.27,532.80,598.00
126,819.40,534.88,614.00
127,819.54,536.95,618.00
128,819.68,539.03,602.00
129,819.82,541.10,550.00
130,819.96,543.17,605.00
131,820.10,545.24,652.00
132,820.24,547.32,658.00
133,820.38,549.39,624.00
134,820.52,551.45,656.00
135,820.66,553.52,645.00
136,820.80,555.59,670.00
137,820.94,557.66,662.00
138,821.08,559.72,721.00
139,821.22,561.78,687.00
140,821.35,563.85,702.00
141,821.49,565.91,668.00
142,821.63,567.97,679.00
143,821.77,570.03,782.00
144,821.91,572.09,844.00
145,822.05,574.15,976.00
146,822.19,576.21,1126.00
147,822.33,578.26,1366.00
148,822.47,580.32,1566.00
149,822.61,582.37,1792.00
150,822.75,584.42,1918.00
151,822.88,586.48,1978.00
152,823.02,588.53,1895.00
153,823.16,590.58,1650.00
154,823.30,592.63,1400.00
155,823.44,594.68,1204.00
156,823.58,596.72,1033.00
157,823.72,598.77,898.00
158,823.86,600.82,882.00
159,824.00,602.86,774.00
160,824.13,604.90,697.00
161,824.27,606.95,734.00
162,824.41,608.99,749.00
163,824.55,611.03,759.00
164,824.69,613.07,731.00
165,824.83,615.11,736.00
166,824.97,617.15,816.00
167,825.10,619.18,891.00
168,825.24,621.22,976.00
169,825.38,623.25,1387.00
170,825.52,625.29,2007.00
171,825.66,627.32,3109.00
172,825.80,629.35,4840.00
173,825.94,631.38,6407.00
174,826.07,633.41,7418.00
175,826.21,635.44,7038.00
176,826.35,637.47,6657.00
177,826.49,639.50,5055.00
178,826.63,641.52,3489.00
179,826.77,643.55,2321.00
180,826.91,645.57,1642.00
181,827.04,647.60,1377.00
182,827.18,649.62,1305.00
183,827.32,651.64,1314.00
184,827.46,653.66,1396.00
185,827.60,655.68,1528.00
186,827.74,657.70,1672.00
187,827.87,659.71,1900.00
188,828.01,661.73,2158.00
189,828.15,663.75,2342.00
190,828.29,665.76,2426.00
191,828.43,667.77,2551.00
192,828.56,669.79,2397.00
193,828.70,671.80,2311.00
194,828.84,673.81,2091.00
195,828.98,675.82,1840.00
196,829.12,677.83,1548.00
197,829.25,679.83,1332.00
198,829.39,681.84,1229.00
199,829.53,683.84,1104.00
200,829.67,685.85,1063.00
201,829.81,687.85,1027.00
202,829.94,689.86,966.00
203,830.08,691.86,994.00
204,830.22,693.86,972.00
205,830.36,695.86,1084.00
206,830.50,697.86,1136.00
207,830.63,699.85,1265.00
208,830.77,701.85,1398.00
209,830.91,703.85,1528.00
210,831.05,705.84,1638.00
211,831.18,707.84,1638.00
212,831.32,709.83,1596.00
213,831.46,711.82,1468.00
214,831.60,713.81,1212.00
215,831.74,715.80,1073.00
216,831.87,717.79,966.00
217,832.01,719.78,928.00
218,832.15,721.76,894.00
219,832.29,723.75,908.00
220,832.42,725.74,968.00
221,832.56,727.72,892.00
222,832.70,729.70,961.00
223,832.84,731.68,1041.00
224,832.97,733.67,1179.00
225,833.11,735.65,1260.00
226,833.25,737.62,1506.00
227,833.39,739.60,1803.00
228,833.52,741.58,2441.00
229,833.66,743.56,3293.00
230,833.80,745.53,4406.00
231,833.93,747.51,5688.00
232,834.07,749.48,6820.00
233,834.21,751.45,7239.00
234,834.35,753.42,7063.00
235,834.48,755.39,6259.00
236,834.62,757.36,5106.00
237,834.76,759.33,3953.00
238,834.89,761.30,2963.00
239,835.03,763.26,2484.00
240,835.17,765.23,2222.00
241,835.31,767.19,2125.00
242,835.44,769.16,2105.00
243,835.58,771.12,2155.00
244,835.72,773.08,2161.00
245,835.85,775.04,2582.00
246,835.99,777.00,3287.00
247,836.13,778.96,4754.00
248,836.26,780.92,6974.00
249,836.40,782.87,9021.00
250,836.54,784.83,10548.00
251,836.68,786.78,11208.00
252,836.81,788.74,10376.00
253,836.95,790.69,8755.00
254,837.09,792.64,6905.00
255,837.22,794.59,5211.00
256,837.36,796.54,4136.00
257,837.50,798.49,3672.00
258,837.63,800.44,3518.00
259,837.77,802.38,3494.00
260,837.91,804.33,3470.00
261,838.04,806.27,3706.00
262,838.18,808.22,4008.00
263,838.31,810.16,4377.00
264,838.45,812.10,5047.00
265,838.59,814.04,6061.00
266,838.72,815.98,7261.00
267,838.86,817.92,8635.00
268,839.00,819.86,9961.00
269,839.13,821.80,11064.00
270,839.27,823.73,11870.00
271,839.41,825.67,12438.00
272,839.54,827.60,12750.00
273,839.68,829.53,13105.00
274,839.81,831.47,13476.00
275,839.95,833.40,13794.00
276,840.09,835.33,14113.00
277,840.22,837.26,14149.00
278,840.36,839.18,13817.00
279,840.50,841.11,12997.00
280,840.63,843.04,11991.00
281,840.77,844.96,10535.00
282,840.90,846.89,8921.00
283,841.04,848.81,7431.00
284,841.18,850.73,6276.00
285,841.31,852.65,5250.00
286,841.45,854.57,4486.00
287,841.58,856.49,3936.00
288,841.72,858.41,3361.00
289,841.86,860.33,2883.00
290,841.99,862.24,2550.00
291,842.13,864.16,2201.00
292,842.26,866.07,2098.00
293,842.40,867.99,2051.00
294,842.53,869.90,2098.00
295,842.67,871.81,2314.00
296,842.81,873.72,2692.00
297,842.94,875.63,2918.00
298,843.08,877.54,3297.00
299,843.21,879.44,3666.00
300,843.35,881.35,3915.00
301,843.48,883.26,4012.00
302,843.62,885.16,4206.00
303,843.75,887.06,4197.00
304,843.89,888.97,4164.00
305,844.03,890.87,3930.00
306,844.16,892.77,3692.00
307,844.30,894.67,3307.00
308,844.43,896.57,3007.00
309,844.57,898.46,2460.00
310,844.70,900.36,2144.00
311,844.84,902.26,1887.00
312,844.97,904.15,1630.00
313,845.11,906.04,1486.00
314,845.24,907.94,1421.00
315,845.38,909.83,1347.00
316,845.51,911.72,1330.00
317,845.65,913.61,1487.00
318,845.78,915.50,1596.00
319,845.92,917.38,1833.00
320,846.05,919.27,2011.00
321,846.19,921.16,2026.00
322,846.32,923.04,1988.00
323,846.46,924.92,1884.00
324,846.59,926.81,1708.00
325,846.73,928.69,1571.00
326,846.86,930.57,1568.00
327,847.00,932.45,1575.00
328,847.13,934.33,1837.00
329,847.27,936.20,2321.00
330,847.40,938.08,2941.00
331,847.54,939.96,3743.00
332,847.67,941.83,4312.00
333,847.81,943.71,4971.00
334,847.94,945.58,5336.00
335,848.08,947.45,5566.00
336,848.21,949.32,5884.00
337,848.34,951.19,6177.00
338,848.48,953.06,6385.00
339,848.61,954.93,6276.00
340,848.75,956.79,5780.00
341,848.88,958.66,4982.00
342,849.02,960.52,4011.00
343,849.15,962.39,3105.00
344,849.29,964.25,2402.00
345,849.42,966.11,2028.00
346,849.55,967.97,1847.00
347,849.69,969.83,1765.00
348,849.82,971.69,1648.00
349,849.96,973.55,1564.00
350,850.09,975.41,1410.00
351,850.23,977.26,1324.00
352,850.36,979.12,1193.00
353,850.49,980.97,1128.00
354,850.63,982.82,1212.00
355,850.76,984.68,1204.00
356,850.90,986.53,1377.00
357,851.03,988.38,1528.00
358,851.16,990.23,1819.00
359,851.30,992.07,2349.00
360,851.43,993.92,3156.00
361,851.56,995.77,4588.00
362,851.70,997.61,6131.00
363,851.83,999.46,7644.00
364,851.97,1001.30,8688.00
365,852.10,1003.14,8835.00
366,852.23,1004.98,8108.00
367,852.37,1006.82,6620.00
368,852.50,1008.66,4938.00
369,852.63,1010.50,3519.00
370,852.77,1012.34,2414.00
371,852.90,1014.17,1854.00
372,853.04,1016.01,1526.00
373,853.17,1017.84,1432.00
374,853.30,1019.68,1294.00
375,853.44,1021.51,1231.00
376,853.57,1023.34,1194.00
377,853.70,1025.17,1035.00
378,853.84,1027.00,1004.00
379,853.97,1028.83,1004.00
380,854.10,1030.65,941.00
381,854.24,1032.48,965.00
382,854.37,1034.31,824.00
383,854.50,1036.13,905.00
384,854.64,1037.95,858.00
385,854.77,1039.77,879.00
386,854.90,1041.60,900.00
387,855.03,1043.42,934.00
388,855.17,1045.24,1008.00
389,855.30,1047.05,1003.00
390,855.43,1048.87,1075.00
391,855.57,1050.69,1214.00
392,855.70,1052.50,1484.00
393,855.83,1054.32,1651.00
394,855.96,1056.13,1826.00
395,856.10,1057.94,1971.00
396,856.23,1059.75,1977.00
397,856.36,1061.56,1889.00
398,856.50,1063.37,1985.00
399,856.63,1065.18,2125.00
400,856.76,1066.99,2264.00
401,856.89,1068.80,2682.00
402,857.03,1070.60,2857.00
403,857.16,1072.41,2895.00
404,857.29,1074.21,2827.00
405,857.42,1076.01,2494.00
406,857.56,1077.81,2275.00
407,857.69,1079.61,1990.00
408,857.82,1081.41,1897.00
409,857.95,1083.21,1851.00
410,858.09,1085.01,2083.00
411,858.22,1086.81,2166.00
412,858.35,1088.60,2562.00
413,858.48,1090.40,2941.00
414,858.61,1092.19,3209.00
415,858.75,1093.98,3329.00
416,858.88,1095.77,3388.00
417,859.01,1097.56,3127.00
418,859.14,1099.35,2884.00
419,859.28,1101.14,2692.00
420,859.41,1102.93,2486.00
421,859.54,1104.72,2696.00
422,859.67,1106.50,3241.00
423,859.80,1108.29,3907.00
424,859.94,1110.07,4795.00
425,860.07,1111.85,5888.00
426,860.20,1113.63,6719.00
427,860.33,1115.41,7413.00
428,860.46,1117.19,7660.00
429,860.59,1118.97,7515.00
430,860.73,1120.75,6803.00
431,860.86,1122.53,6116.00
432,860.99,1124.30,5092.00
433,861.12,1126.08,4226.00
434,861.25,1127.85,3361.00
435,861.38,1129.62,2764.00
436,861.51,1131.39,2266.00
437,861.65,1133.17,1870.00
438,861.78,1134.93,1811.00
439,861.91,1136.70,1657.00
440,862.04,1138.47,1490.00
441,862.17,1140.24,1537.00
442,862.30,1142.00,1548.00
443,862.43,1143.77,1523.00
444,862.57,1145.53,1572.00
445,862.70,1147.29,1449.00
446,862.83,1149.06,1634.00
447,862.96,1150.82,1611.00
448,863.09,1152.58,1680.00
449,863.22,1154.34,1786.00
450,863.35,1156.09,1979.00
451,863.48,1157.85,2153.00
452,863.61,1159.61,2318.00
453,863.74,1161.36,2728.00
454,863.88,1163.11,3144.00
455,864.01,1164.87,3563.00
456,864.14,1166.62,3951.00
457,864.27,1168.37,4320.00
458,864.40,1170.12,4731.00
459,864.53,1171.87,5040.00
460,864.66,1173.62,5898.00
461,864.79,1175.36,7375.00
462,864.92,1177.11,10149.00
463,865.05,1178.85,13876.00
464,865.18,1180.60,17983.00
465,865.31,1182.34,21556.00
466,865.44,1184.08,23444.00
467,865.57,1185.82,23810.00
468,865.70,1187.56,22655.00
469,865.83,1189.30,19946.00
470,865.96,1191.04,16894.00
471,866.10,1192.78,14269.00
472,866.23,1194.51,11958.00
473,866.36,1196.25,10258.00
474,866.49,1197.98,9177.00
475,866.62,1199.71,9315.00
476,866.75,1201.45,9970.00
477,866.88,1203.18,10609.00
478,867.01,1204.91,11330.00
479,867.14,1206.64,11239.00
480,867.27,1208.36,10311.00
481,867.40,1210.09,9000.00
482,867.53,1211.82,7535.00
483,867.66,1213.54,6278.00
484,867.79,1215.27,5646.00
485,867.92,1216.99,5258.00
486,868.04,1218.71,5161.00
487,868.17,1220.43,5185.00
488,868.30,1222.15,5015.00
489,868.43,1223.87,4492.00
490,868.56,1225.59,3987.00
491,868.69,1227.31,3388.00
492,868.82,1229.02,2871.00
493,868.95,1230.74,2502.00
494,869.08,1232.45,2273.00
495,869.21,1234.16,2089.00
496,869.34,1235.88,2157.00
497,869.47,1237.59,2224.00
498,869.60,1239.30,2273.00
499,869.73,1241.01,2428.00
500,869.86,1242.71,2810.00
501,869.99,1244.42,3023.00
502,870.12,1246.13,3344.00
503,870.24,1247.83,3622.00
504,870.37,1249.54,3936.00
505,870.50,1251.24,3964.00
506,870.63,1252.94,3970.00
507,870.76,1254.64,3846.00
508,870.89,1256.34,3515.00
509,871.02,1258.04,3247.00
510,871.15,1259.74,2970.00
511,871.28,1261.44,2685.00
512,871.41,1263.13,2494.00
513,871.53,1264.83,2395.00
514,871.66,1266.52,2308.00
515,871.79,1268.22,2432.00
516,871.92,1269.91,2391.00
517,872.05,1271.60,2467.00
518,872.18,1273.29,2825.00
519,872.31,1274.98,3059.00
520,872.43,1276.67,3657.00
521,872.56,1278.35,4276.00
522,872.69,1280.04,4845.00
523,872.82,1281.73,5479.00
524,872.95,1283.41,5880.00
525,873.08,1285.09,5996.00
526,873.20,1286.78,5916.00
527,873.33,1288.46,6120.00
528,873.46,1290.14,5911.00
529,873.59,1291.82,5850.00
530,873.72,1293.49,5597.00
531,873.84,1295.17,5343.00
532,873.97,1296.85,4818.00
533,874.10,1298.52,4468.00
534,874.23,1300.20,4004.00
535,874.36,1301.87,3655.00
536,874.48,1303.54,3691.00
537,874.61,1305.21,3708.00
538,874.74,1306.88,3615.00
539,874.87,1308.55,3502.00
540,875.00,1310.22,3546.00
541,875.12,1311.89,3270.00
542,875.25,1313.56,3078.00
543,875.38,1315.22,2994.00
544,875.51,1316.89,3090.00
545,875.63,1318.55,3319.00
546,875.76,1320.21,3630.00
547,875.89,1321.87,4105.00
548,876.02,1323.53,4410.00
549,876.14,1325.19,4893.00
550,876.27,1326.85,4792.00
551,876.40,1328.51,4870.00
552,876.52,1330.16,4810.00
553,876.65,1331.82,4488.00
554,876.78,1333.47,4385.00
555,876.91,1335.13,4474.00
556,877.03,1336.78,4766.00
557,877.16,1338.43,5241.00
558,877.29,1340.08,5770.00
559,877.41,1341.73,6267.00
560,877.54,1343.38,6289.00
561,877.67,1345.03,6143.00
562,877.80,1346.67,5977.00
563,877.92,1348.32,5418.00
564,878.05,1349.96,4697.00
565,878.18,1351.61,4212.00
566,878.30,1353.25,3883.00
567,878.43,1354.89,3306.00
568,878.56,1356.53,3228.00
569,878.68,1358.17,3219.00
570,878.81,1359.81,3335.00
571,878.93,1361.45,3512.00
572,879.06,1363.08,3786.00
573,879.19,1364.72,3734.00
574,879.31,1366.35,3700.00
575,879.44,1367.99,3567.00
576,879.57,1369.62,3400.00
577,879.69,1371.25,3019.00
578,879.82,1372.88,2886.00
579,879.95,1374.51,2662.00
580,880.07,1376.14,2557.00
581,880.20,1377.77,2593.00
582,880.32,1379.39,2439.00
583,880.45,1381.02,2366.00
584,880.58,1382.64,2521.00
585,880.70,1384.27,2494.00
586,880.83,1385.89,2435.00
587,880.95,1387.51,2446.00
588,881.08,1389.13,2372.00
589,881.20,1390.75,2509.00
590,881.33,1392.37,2374.00
591,881.46,1393.99,2505.00
592,881.58,1395.60,2492.00
593,881.71,1397.22,2684.00
594,881.83,1398.83,2779.00
595,881.96,1400.45,2836.00
596,882.08,1402.06,3111.00
597,882.21,1403.67,3104.00
598,882.33,1405.28,3434.00
599,882.46,1406.89,3715.00
600,882.58,1408.50,3989.00
601,882.71,1410.11,4442.00
602,882.84,1411.71,4739.00
603,882.96,1413.32,5165.00
604,883.09,1414.92,5511.00
605,883.21,1416.53,5770.00
606,883.34,1418.13,5865.00
607,883.46,1419.73,5778.00
608,883.59,1421.33,5603.00
609,883.71,1422.93,5286.00
610,883.84,1424.53,5045.00
611,883.96,1426.13,4638.00
612,884.09,1427.72,4457.00
613,884.21,1429.32,4297.00
614,884.33,1430.91,4092.00
615,884.46,1432.51,4258.00
616,884.58,1434.10,4558.00
617,884.71,1435.69,4806.00
618,884.83,1437.28,5193.00
619,884.96,1438.87,5458.00
620,885.08,1440.46,5946.00
621,885.21,1442.05,6721.00
622,885.33,1443.64,7602.00
623,885.45,1445.22,8292.00
624,885.58,1446.81,9338.00
625,885.70,1448.39,10128.00
626,885.83,1449.97,10299.00
627,885.95,1451.55,10076.00
628,886.08,1453.14,9594.00
629,886.20,1454.72,9000.00
630,886.32,1456.29,8502.00
631,886.45,1457.87,8218.00
632,886.57,1459.45,8387.00
633,886.70,1461.02,8390.00
634,886.82,1462.60,8151.00
635,886.94,1464.17,7680.00
636,887.07,1465.75,7000.00
637,887.19,1467.32,6192.00
638,887.31,1468.89,5579.00
639,887.44,1470.46,5207.00
640,887.56,1472.03,5005.00
641,887.68,1473.59,4727.00
642,887.81,1475.16,4722.00
643,887.93,1476.73,4764.00
644,888.06,1478.29,4478.00
645,888.18,1479.86,4172.00
646,888.30,1481.42,3634.00
647,888.43,1482.98,3270.00
648,888.55,1484.54,3070.00
649,888.67,1486.10,2758.00
650,888.79,1487.66,2584.00
651,888.92,1489.22,2410.00
652,889.04,1490.77,2490.00
653,889.16,1492.33,2330.00
654,889.29,1493.88,2334.00
655,889.41,1495.44,2268.00
656,889.53,1496.99,2307.00
657,889.66,1498.54,2144.00
658,889.78,1500.09,2169.00
659,889.90,1501.64,2231.00
660,890.02,1503.19,2153.00
661,890.15,1504.74,2097.00
662,890.27,1506.29,2115.00
663,890.39,1507.83,2152.00
664,890.51,1509.38,2123.00
665,890.64,1510.92,2066.00
666,890.76,1512.47,2117.00
667,890.88,1514.01,2194.00
668,891.00,1515.55,2129.00
669,891.13,1517.09,2180.00
670,891.25,1518.63,2085.00
671,891.37,1520.16,2061.00
672,891.49,1521.70,2104.00
673,891.61,1523.24,2075.00
674,891.74,1524.77,2010.00
675,891.86,1526.31,2091.00
676,891.98,1527.84,2151.00
677,892.10,1529.37,2025.00
678,892.22,1530.90,2041.00
679,892.35,1532.43,2035.00
680,892.47,1533.96,2073.00
681,892.59,1535.49,2249.00
682,892.71,1537.02,2150.00
683,892.83,1538.54,2235.00
684,892.95,1540.07,2264.00
685,893.08,1541.59,2245.00
686,893.20,1543.11,2259.00
687,893.32,1544.64,2431.00
688,893.44,1546.16,2367.00
689,893.56,1547.68,2285.00
690,893.68,1549.20,2221.00
691,893.80,1550.71,2212.00
692,893.92,1552.23,2169.00
693,894.05,1553.75,1965.00
694,894.17,1555.26,2187.00
695,894.29,1556.78,2121.00
696,894.41,1558.29,2023.00
697,894.53,1559.80,2125.00
698,894.65,1561.31,2215.00
699,894.77,1562.82,2290.00
700,894.89,1564.33,2342.00
701,895.01,1565.84,2386.00
702,895.13,1567.35,2766.00
703,895.26,1568.85,3200.00
704,895.38,1570.36,3453.00
705,895.50,1571.86,3786.00
706,895.62,1573.36,3993.00
707,895.74,1574.87,3892.00
708,895.86,1576.37,3764.00
709,895.98,1577.87,3392.00
710,896.10,1579.37,3048.00
711,896.22,1580.87,2608.00
712,896.34,1582.36,2420.00
713,896.46,1583.86,2220.00
714,896.58,1585.35,2186.00
715,896.70,1586.85,2266.00
716,896.82,1588.34,2189.00
717,896.94,1589.83,2372.00
718,897.06,1591.32,2369.00
719,897.18,1592.81,2576.00
720,897.30,1594.30,2742.00
721,897.42,1595.79,2988.00
722,897.54,1597.28,3546.00
723,897.66,1598.76,4129.00
724,897.78,1600.25,4899.00
725,897.90,1601.73,5991.00
726,898.02,1603.22,7625.00
727,898.14,1604.70,9601.00
728,898.26,1606.18,12068.00
729,898.38,1607.66,14158.00
730,898.50,1609.14,15991.00
731,898.62,1610.62,17064.00
732,898.73,1612.10,17064.00
733,898.85,1613.57,16252.00
734,898.97,1615.05,14410.00
735,899.09,1616.52,12170.00
736,899.21,1617.99,9824.00
737,899.33,1619.47,7845.00
738,899.45,1620.94,6282.00
739,899.57,1622.41,5017.00
740,899.69,1623.88,4135.00
741,899.81,1625.35,3542.00
742,899.92,1626.81,3076.00
743,900.04,1628.28,2667.00
744,900.16,1629.74,2677.00
745,900.28,1631.21,2359.00
746,900.40,1632.67,2342.00
747,900.52,1634.13,2138.00
748,900.64,1635.60,1979.00
749,900.76,1637.06,2014.00
750,900.87,1638.51,2026.00
751,900.99,1639.97,1852.00
752,901.11,1641.43,1718.00
753,901.23,1642.89,1712.00
754,901.35,1644.34,1724.00
755,901.46,1645.80,1697.00
756,901.58,1647.25,1777.00
757,901.70,1648.70,1630.00
758,901.82,1650.15,1642.00
759,901.94,1651.60,1623.00
760,902.05,1653.05,1556.00
761,902.17,1654.50,1487.00
762,902.29,1655.95,1560.00
763,902.41,1657.40,1585.00
764,902.53,1658.84,1486.00
765,902.64,1660.28,1518.00
766,902.76,1661.73,1513.00
767,902.88,1663.17,1482.00
768,903.00,1664.61,1448.00
769,903.11,1666.05,1438.00
770,903.23,1667.49,1489.00
771,903.35,1668.93,1446.00
772,903.47,1670.37,1485.00
773,903.58,1671.80,1525.00
774,903.70,1673.24,1476.00
775,903.82,1674.67,1501.00
776,903.93,1676.11,1485.00
777,904.05,1677.54,1485.00
778,904.17,1678.97,1503.00
779,904.29,1680.40,1478.00
780,904.40,1681.83,1535.00
781,904.52,1683.26,1427.00
782,904.64,1684.69,1495.00
783,904.75,1686.11,1427.00
784,904.87,1687.54,1499.00
785,904.99,1688.96,1426.00
786,905.10,1690.39,1459.00
787,905.22,1691.81,1435.00
788,905.34,1693.23,1376.00
789,905.45,1694.65,1341.00
790,905.57,1696.07,1478.00
791,905.69,1697.49,1425.00
792,905.80,1698.91,1423.00
793,905.92,1700.32,1404.00
794,906.03,1701.74,1393.00
795,906.15,1703.15,1429.00
796,906.27,1704.57,1343.00
797,906.38,1705.98,1252.00
798,906.50,1707.39,1339.00
799,906.61,1708.80,1379.00
800,906.73,1710.21,1379.00
801,906.85,1711.62,1333.00
802,906.96,1713.03,1330.00
803,907.08,1714.43,1375.00
804,907.19,1715.84,1324.00
805,907.31,1717.24,1200.00
806,907.42,1718.65,1311.00
807,907.54,1720.05,1255.00
808,907.65,1721.45,1210.00
809,907.77,1722.85,1219.00
810,907.89,1724.25,1199.00
811,908.00,1725.65,1086.00
812,908.12,1727.05,1174.00
813,908.23,1728.44,1126.00
814,908.35,1729.84,1132.00
815,908.46,1731.23,1123.00
816,908.58,1732.63,1159.00
817,908.69,1734.02,1067.00
818,908.81,1735.41,1119.00
819,908.92,1736.80,1078.00
820,909.04,1738.19,1103.00
821,909.15,1739.58,1040.00
822,909.27,1740.97,1101.00
823,909.38,1742.35,1071.00
824,909.49,1743.74,1035.00
825,909.61,1745.12,1094.00
826,909.72,1746.51,930.00
827,909.84,1747.89,965.00
828,909.95,1749.27,995.00
829,910.07,1750.65,1006.00
830,910.18,1752.03,1005.00
831,910.30,1753.41,995.00
832,910.41,1754.79,943.00
833,910.52,1756.17,1022.00
834,910.64,1757.54,953.00
835,910.75,1758.92,1012.00
836,910.87,1760.29,942.00
837,910.98,1761.66,947.00
838,911.09,1763.03,868.00
839,911.21,1764.41,892.00
840,911.32,1765.78,968.00
841,911.43,1767.14,896.00
842,911.55,1768.51,871.00
843,911.66,1769.88,814.00
844,911.78,1771.24,843.00
845,911.89,1772.61,848.00
846,912.00,1773.97,866.00
847,912.12,1775.34,852.00
848,912.23,1776.70,904.00
849,912.34,1778.06,793.00
850,912.46,1779.42,801.00
851,912.57,1780.78,889.00
852,912.68,1782.13,788.00
853,912.79,1783.49,938.00
854,912.91,1784.85,791.00
855,913.02,1786.20,920.00
856,913.13,1787.56,814.00
857,913.25,1788.91,894.00
858,913.36,1790.26,913.00
859,913.47,1791.61,806.00
860,913.58,1792.96,879.00
861,913.70,1794.31,787.00
862,913.81,1795.66,782.00
863,913.92,1797.00,810.00
864,914.03,1798.35,893.00
865,914.15,1799.69,835.00
866,914.26,1801.04,803.00
867,914.37,1802.38,795.00
868,914.48,1803.72,799.00
869,914.60,1805.06,742.00
870,914.71,1806.40,791.00
871,914.82,1807.74,827.00
872,914.93,1809.08,780.00
873,915.04,1810.42,787.00
874,915.16,1811.75,746.00
875,915.27,1813.09,862.00
876,915.38,1814.42,786.00
877,915.49,1815.76,810.00
878,915.60,1817.09,793.00
879,915.71,1818.42,791.00
880,915.83,1819.75,751.00
881,915.94,1821.08,784.00
882,916.05,1822.40,671.00
883,916.16,1823.73,810.00
884,916.27,1825.06,799.00
885,916.38,1826.38,761.00
886,916.49,1827.71,770.00
887,916.61,1829.03,768.00
888,916.72,1830.35,855.00
889,916.83,1831.67,761.00
890,916.94,1832.99,799.00
891,917.05,1834.31,695.00
892,917.16,1835.63,747.00
893,917.27,1836.95,805.00
894,917.38,1838.26,753.00
895,917.49,1839.58,662.00
896,917.60,1840.89,757.00
897,917.71,1842.20,792.00
898,917.82,1843.52,679.00
899,917.93,1844.83,658.00
900,918.04,1846.14,693.00
901,918.15,1847.45,728.00
902,918.27,1848.75,775.00
903,918.38,1850.06,649.00
904,918.49,1851.37,792.00
905,918.60,1852.67,746.00
906,918.71,1853.98,702.00
907,918.82,1855.28,784.00
908,918.93,1856.58,673.00
909,919.04,1857.88,736.00
910,919.15,1859.18,706.00
911,919.26,1860.48,719.00
912,919.36,1861.78,688.00
913,919.47,1863.08,696.00
914,919.58,1864.37,765.00
915,919.69,1865.67,685.00
916,919.80,1866.96,622.00
917,919.91,1868.26,776.00
918,920.02,1869.55,693.00
919,920.13,1870.84,694.00
920,920.24,1872.13,660.00
921,920.35,1873.42,738.00
922,920.46,1874.71,731.00
923,920.57,1875.99,784.00
924,920.68,1877.28,724.00
925,920.79,1878.56,675.00
926,920.89,1879.85,740.00
927,921.00,1881.13,679.00
928,921.11,1882.41,797.00
929,921.22,1883.69,731.00
930,921.33,1884.97,645.00
931,921.44,1886.25,679.00
932,921.55,1887.53,755.00
933,921.66,1888.81,715.00
934,921.76,1890.09,748.00
935,921.87,1891.36,686.00
936,921.98,1892.63,679.00
937,922.09,1893.91,713.00
938,922.20,1895.18,647.00
939,922.30,1896.45,706.00
940,922.41,1897.72,705.00
941,922.52,1898.99,664.00
942,922.63,1900.26,695.00
943,922.74,1901.53,647.00
944,922.84,1902.79,693.00
945,922.95,1904.06,696.00
946,923.06,1905.32,670.00
947,923.17,1906.58,712.00
948,923.28,1907.85,656.00
949,923.38,1909.11,645.00
950,923.49,1910.37,628.00
951,923.60,1911.63,591.00
952,923.70,1912.89,626.00
953,923.81,1914.14,669.00
954,923.92,1915.40,606.00
955,924.03,1916.65,626.00
956,924.13,1917.91,615.00
957,924.24,1919.16,664.00
958,924.35,1920.41,639.00
959,924.45,1921.67,651.00
960,924.56,1922.92,556.00
961,924.67,1924.17,598.00
962,924.78,1925.41,595.00
963,924.88,1926.66,536.00
964,924.99,1927.91,557.00
965,925.09,1929.15,595.00
966,925.20,1930.40,561.00
967,925.31,1931.64,706.00
968,925.41,1932.88,559.00
969,925.52,1934.12,550.00
970,925.63,1935.36,536.00
971,925.73,1936.60,522.00
972,925.84,1937.84,569.00
973,925.95,1939.08,614.00
974,926.05,1940.32,555.00
975,926.16,1941.55,569.00
976,926.26,1942.79,554.00
977,926.37,1944.02,578.00
978,926.47,1945.25,548.00
979,926.58,1946.48,586.00
980,926.69,1947.71,531.00
981,926.79,1948.94,550.00
982,926.90,1950.17,508.00
983,927.00,1951.40,542.00
984,927.11,1952.62,543.00
985,927.21,1953.85,508.00
986,927.32,1955.07,582.00
987,927.42,1956.30,546.00
988,927.53,1957.52,589.00
989,927.63,1958.74,453.00
990,927.74,1959.96,503.00
991,927.84,1961.18,569.00
992,927.95,1962.40,456.00
993,928.05,1963.62,542.00
994,928.16,1964.83,536.00
995,928.26,1966.05,467.00
996,928.37,1967.26,401.00
997,928.47,1968.48,449.00
998,928.58,1969.69,434.00
999,928.68,1970.90,494.00
1000,928.79,1972.11,460.00
1001,928.89,1973.32,455.00
1002,928.99,1974.53,462.00
1003,929.10,1975.74,531.00
1004,929.20,1976.94,445.00
1005,929.31,1978.15,451.00
1006,929.41,1979.35,449.00
1007,929.52,1980.56,394.00
1008,929.62,1981.76,452.00
1009,929.72,1982.96,445.00
1010,929.83,1984.16,434.00
1011,929.93,1985.36,409.00
1012,930.03,1986.56,409.00
1013,930.14,1987.76,406.00
1014,930.24,1988.95,478.00
1015,930.34,1990.15,390.00
1016,930.45,1991.34,439.00
1017,930.55,1992.54,456.00
1018,930.65,1993.73,461.00
1019,930.76,1994.92,376.00
1020,930.86,1996.11,428.00
1021,930.96,1997.30,390.00
1022,931.07,1998.49,462.00
1023,931.17,1999.68,453.00
