ENLIGHTEN Version,1.7.2
Measurement ID,20190905-084844-045777-WP-00340
Serial Number,WP-00340
Label,Ibuprofen-11mm-2
Integration Time,500
Timestamp,2019-09-05 08:48:44.045777
Note,
Temperature,9.99381697227335
CCD C0,801.7174072265625
CCD C1,0.14122000336647034
CCD C2,-5.609700110653648e-06
CCD C3,-8.541699791919655e-09
CCD Offset,0
CCD Gain,1.9
Laser Wavelength,785
Laser Enable,True
Laser Power,100
Laser Temperature,0
Pixel Count,1024

Pixel,Wavelength,Wavenumber,Processed
0,801.72,265.63,137.00
1,801.86,267.83,173.00
2,802.00,270.02,175.00
3,802.14,272.22,194.00
4,802.28,274.41,249.00
5,802.42,276.60,279.00
6,802.56,278.80,367.00
7,802.71,280.99,434.00
8,802.85,283.18,562.00
9,802.99,285.37,683.00
10,803.13,287.55,809.00
11,803.27,289.74,961.00
12,803.41,291.93,1102.00
13,803.55,294.11,1300.00
14,803.69,296.30,1465.00
15,803.83,298.48,1693.00
16,803.98,300.66,1889.00
17,804.12,302.84,2081.00
18,804.26,305.02,2207.00
19,804.40,307.20,2243.00
20,804.54,309.38,2228.00
21,804.68,311.56,2117.00
22,804.82,313.74,2011.00
23,804.96,315.91,1891.00
24,805.10,318.09,1775.00
25,805.24,320.26,1799.00
26,805.39,322.43,1855.00
27,805.53,324.61,1808.00
28,805.67,326.78,1811.00
29,805.81,328.95,1813.00
30,805.95,331.12,1815.00
31,806.09,333.28,1838.00
32,806.23,335.45,1771.00
33,806.37,337.62,1762.00
34,806.51,339.78,1781.00
35,806.65,341.95,1790.00
36,806.79,344.11,1811.00
37,806.93,346.27,1876.00
38,807.08,348.43,1984.00
39,807.22,350.59,2123.00
40,807.36,352.75,2252.00
41,807.50,354.91,2450.00
42,807.64,357.07,2490.00
43,807.78,359.23,2532.00
44,807.92,361.38,2439.00
45,808.06,363.54,2248.00
46,808.20,365.69,2091.00
47,808.34,367.84,1881.00
48,808.48,370.00,1794.00
49,808.62,372.15,1754.00
50,808.76,374.30,1771.00
51,808.90,376.45,1767.00
52,809.04,378.59,1763.00
53,809.19,380.74,1849.00
54,809.33,382.89,1854.00
55,809.47,385.03,1840.00
56,809.61,387.18,1806.00
57,809.75,389.32,1738.00
58,809.89,391.46,1689.00
59,810.03,393.60,1638.00
60,810.17,395.74,1655.00
61,810.31,397.88,1627.00
62,810.45,400.02,1634.00
63,810.59,402.16,1691.00
64,810.73,404.29,1815.00
65,810.87,406.43,1877.00
66,811.01,408.57,2085.00
67,811.15,410.70,2370.00
68,811.29,412.83,2669.00
69,811.43,414.96,2973.00
70,811.57,417.09,3203.00
71,811.71,419.22,3261.00
72,811.85,421.35,3198.00
73,811.99,423.48,3026.00
74,812.13,425.61,2816.00
75,812.27,427.73,2639.00
76,812.41,429.86,2529.00
77,812.55,431.98,2486.00
78,812.69,434.11,2304.00
79,812.83,436.23,2176.00
80,812.97,438.35,1994.00
81,813.11,440.47,1907.00
82,813.26,442.59,1720.00
83,813.40,444.71,1644.00
84,813.54,446.82,1575.00
85,813.68,448.94,1539.00
86,813.82,451.05,1489.00
87,813.96,453.17,1453.00
88,814.10,455.28,1491.00
89,814.24,457.39,1455.00
90,814.38,459.51,1427.00
91,814.52,461.62,1419.00
92,814.66,463.73,1417.00
93,814.80,465.83,1398.00
94,814.94,467.94,1383.00
95,815.08,470.05,1381.00
96,815.22,472.15,1417.00
97,815.36,474.26,1393.00
98,815.50,476.36,1454.00
99,815.63,478.47,1440.00
100,815.77,480.57,1453.00
101,815.91,482.67,1544.00
102,816.05,484.77,1574.00
103,816.19,486.87,1632.00
104,816.33,488.97,1726.00
105,816.47,491.06,1863.00
106,816.61,493.16,1988.00
107,816.75,495.25,2060.00
108,816.89,497.35,2024.00
109,817.03,499.44,1917.00
110,817.17,501.53,1802.00
111,817.31,503.62,1714.00
112,817.45,505.71,1611.00
113,817.59,507.80,1628.00
114,817.73,509.89,1651.00
115,817.87,511.98,1659.00
116,818.01,514.07,1640.00
117,818.15,516.15,1590.00
118,818.29,518.24,1457.00
119,818.43,520.32,1318.00
120,818.57,522.40,1191.00
121,818.71,524.48,1077.00
122,818.85,526.56,999.00
123,818.99,528.64,979.00
124,819.13,530.72,936.00
125,819.27,532.80,904.00
126,819.40,534.88,905.00
127,819.54,536.95,883.00
128,819.68,539.03,839.00
129,819.82,541.10,890.00
130,819.96,543.17,863.00
131,820.10,545.24,863.00
132,820.24,547.32,888.00
133,820.38,549.39,888.00
134,820.52,551.45,833.00
135,820.66,553.52,890.00
136,820.80,555.59,917.00
137,820.94,557.66,883.00
138,821.08,559.72,888.00
139,821.22,561.78,858.00
140,821.35,563.85,880.00
141,821.49,565.91,861.00
142,821.63,567.97,899.00
143,821.77,570.03,908.00
144,821.91,572.09,940.00
145,822.05,574.15,1003.00
146,822.19,576.21,1092.00
147,822.33,578.26,1241.00
148,822.47,580.32,1360.00
149,822.61,582.37,1461.00
150,822.75,584.42,1522.00
151,822.88,586.48,1533.00
152,823.02,588.53,1463.00
153,823.16,590.58,1343.00
154,823.30,592.63,1259.00
155,823.44,594.68,1116.00
156,823.58,596.72,1059.00
157,823.72,598.77,995.00
158,823.86,600.82,936.00
159,824.00,602.86,918.00
160,824.13,604.90,905.00
161,824.27,606.95,892.00
162,824.41,608.99,862.00
163,824.55,611.03,868.00
164,824.69,613.07,867.00
165,824.83,615.11,890.00
166,824.97,617.15,896.00
167,825.10,619.18,940.00
168,825.24,621.22,1020.00
169,825.38,623.25,1187.00
170,825.52,625.29,1524.00
171,825.66,627.32,2173.00
172,825.80,629.35,3070.00
173,825.94,631.38,3983.00
174,826.07,633.41,4459.00
175,826.21,635.44,4186.00
176,826.35,637.47,3913.00
177,826.49,639.50,3087.00
178,826.63,641.52,2222.00
179,826.77,643.55,1621.00
180,826.91,645.57,1297.00
181,827.04,647.60,1153.00
182,827.18,649.62,1141.00
183,827.32,651.64,1143.00
184,827.46,653.66,1210.00
185,827.60,655.68,1256.00
186,827.74,657.70,1362.00
187,827.87,659.71,1436.00
188,828.01,661.73,1569.00
189,828.15,663.75,1708.00
190,828.29,665.76,1742.00
191,828.43,667.77,1776.00
192,828.56,669.79,1731.00
193,828.70,671.80,1655.00
194,828.84,673.81,1491.00
195,828.98,675.82,1390.00
196,829.12,677.83,1265.00
197,829.25,679.83,1149.00
198,829.39,681.84,1039.00
199,829.53,683.84,1058.00
200,829.67,685.85,987.00
201,829.81,687.85,961.00
202,829.94,689.86,939.00
203,830.08,691.86,943.00
204,830.22,693.86,942.00
205,830.36,695.86,1004.00
206,830.50,697.86,1024.00
207,830.63,699.85,1104.00
208,830.77,701.85,1183.00
209,830.91,703.85,1275.00
210,831.05,705.84,1261.00
211,831.18,707.84,1309.00
212,831.32,709.83,1275.00
213,831.46,711.82,1172.00
214,831.60,713.81,1064.00
215,831.74,715.80,1018.00
216,831.87,717.79,967.00
217,832.01,719.78,917.00
218,832.15,721.76,889.00
219,832.29,723.75,908.00
220,832.42,725.74,923.00
221,832.56,727.72,930.00
222,832.70,729.70,955.00
223,832.84,731.68,991.00
224,832.97,733.67,1052.00
225,833.11,735.65,1103.00
226,833.25,737.62,1206.00
227,833.39,739.60,1436.00
228,833.52,741.58,1720.00
229,833.66,743.56,2170.00
230,833.80,745.53,2822.00
231,833.93,747.51,3525.00
232,834.07,749.48,4060.00
233,834.21,751.45,4333.00
234,834.35,753.42,4272.00
235,834.48,755.39,3756.00
236,834.62,757.36,3105.00
237,834.76,759.33,2456.00
238,834.89,761.30,2076.00
239,835.03,763.26,1743.00
240,835.17,765.23,1594.00
241,835.31,767.19,1577.00
242,835.44,769.16,1617.00
243,835.58,771.12,1614.00
244,835.72,773.08,1640.00
245,835.85,775.04,1817.00
246,835.99,777.00,2282.00
247,836.13,778.96,3112.00
248,836.26,780.92,4301.00
249,836.40,782.87,5473.00
250,836.54,784.83,6293.00
251,836.68,786.78,6515.00
252,836.81,788.74,6000.00
253,836.95,790.69,5047.00
254,837.09,792.64,4107.00
255,837.22,794.59,3249.00
256,837.36,796.54,2732.00
257,837.50,798.49,2422.00
258,837.63,800.44,2349.00
259,837.77,802.38,2370.00
260,837.91,804.33,2391.00
261,838.04,806.27,2492.00
262,838.18,808.22,2689.00
263,838.31,810.16,2853.00
264,838.45,812.10,3281.00
265,838.59,814.04,3803.00
266,838.72,815.98,4473.00
267,838.86,817.92,5241.00
268,839.00,819.86,5857.00
269,839.13,821.80,6500.00
270,839.27,823.73,6949.00
271,839.41,825.67,7176.00
272,839.54,827.60,7311.00
273,839.68,829.53,7532.00
274,839.81,831.47,7617.00
275,839.95,833.40,7785.00
276,840.09,835.33,7954.00
277,840.22,837.26,8007.00
278,840.36,839.18,7849.00
279,840.50,841.11,7354.00
280,840.63,843.04,6805.00
281,840.77,844.96,5975.00
282,840.90,846.89,5079.00
283,841.04,848.81,4326.00
284,841.18,850.73,3719.00
285,841.31,852.65,3198.00
286,841.45,854.57,2750.00
287,841.58,856.49,2449.00
288,841.72,858.41,2171.00
289,841.86,860.33,1897.00
290,841.99,862.24,1726.00
291,842.13,864.16,1592.00
292,842.26,866.07,1490.00
293,842.40,867.99,1482.00
294,842.53,869.90,1533.00
295,842.67,871.81,1653.00
296,842.81,873.72,1815.00
297,842.94,875.63,2020.00
298,843.08,877.54,2197.00
299,843.21,879.44,2344.00
300,843.35,881.35,2446.00
301,843.48,883.26,2578.00
302,843.62,885.16,2559.00
303,843.75,887.06,2568.00
304,843.89,888.97,2566.00
305,844.03,890.87,2483.00
306,844.16,892.77,2338.00
307,844.30,894.67,2182.00
308,844.43,896.57,1932.00
309,844.57,898.46,1752.00
310,844.70,900.36,1559.00
311,844.84,902.26,1405.00
312,844.97,904.15,1288.00
313,845.11,906.04,1229.00
314,845.24,907.94,1145.00
315,845.38,909.83,1120.00
316,845.51,911.72,1119.00
317,845.65,913.61,1179.00
318,845.78,915.50,1320.00
319,845.92,917.38,1421.00
320,846.05,919.27,1495.00
321,846.19,921.16,1513.00
322,846.32,923.04,1468.00
323,846.46,924.92,1413.00
324,846.59,926.81,1309.00
325,846.73,928.69,1246.00
326,846.86,930.57,1208.00
327,847.00,932.45,1303.00
328,847.13,934.33,1420.00
329,847.27,936.20,1677.00
330,847.40,938.08,2022.00
331,847.54,939.96,2435.00
332,847.67,941.83,2816.00
333,847.81,943.71,3062.00
334,847.94,945.58,3312.00
335,848.08,947.45,3493.00
336,848.21,949.32,3605.00
337,848.34,951.19,3730.00
338,848.48,953.06,3852.00
339,848.61,954.93,3806.00
340,848.75,956.79,3498.00
341,848.88,958.66,3057.00
342,849.02,960.52,2536.00
343,849.15,962.39,2079.00
344,849.29,964.25,1718.00
345,849.42,966.11,1478.00
346,849.55,967.97,1419.00
347,849.69,969.83,1344.00
348,849.82,971.69,1344.00
349,849.96,973.55,1311.00
350,850.09,975.41,1223.00
351,850.23,977.26,1138.00
352,850.36,979.12,1138.00
353,850.49,980.97,1107.00
354,850.63,982.82,1098.00
355,850.76,984.68,1164.00
356,850.90,986.53,1195.00
357,851.03,988.38,1285.00
358,851.16,990.23,1478.00
359,851.30,992.07,1726.00
360,851.43,993.92,2167.00
361,851.56,995.77,2901.00
362,851.70,997.61,3764.00
363,851.83,999.46,4584.00
364,851.97,1001.30,5136.00
365,852.10,1003.14,5106.00
366,852.23,1004.98,4762.00
367,852.37,1006.82,3963.00
368,852.50,1008.66,3120.00
369,852.63,1010.50,2281.00
370,852.77,1012.34,1799.00
371,852.90,1014.17,1495.00
372,853.04,1016.01,1309.00
373,853.17,1017.84,1262.00
374,853.30,1019.68,1221.00
375,853.44,1021.51,1198.00
376,853.57,1023.34,1149.00
377,853.70,1025.17,1172.00
378,853.84,1027.00,1128.00
379,853.97,1028.83,1069.00
380,854.10,1030.65,1067.00
381,854.24,1032.48,1068.00
382,854.37,1034.31,1035.00
383,854.50,1036.13,1085.00
384,854.64,1037.95,1041.00
385,854.77,1039.77,1070.00
386,854.90,1041.60,1100.00
387,855.03,1043.42,1111.00
388,855.17,1045.24,1155.00
389,855.30,1047.05,1151.00
390,855.43,1048.87,1242.00
391,855.57,1050.69,1288.00
392,855.70,1052.50,1427.00
393,855.83,1054.32,1560.00
394,855.96,1056.13,1619.00
395,856.10,1057.94,1657.00
396,856.23,1059.75,1693.00
397,856.36,1061.56,1706.00
398,856.50,1063.37,1702.00
399,856.63,1065.18,1800.00
400,856.76,1066.99,1914.00
401,856.89,1068.80,2104.00
402,857.03,1070.60,2205.00
403,857.16,1072.41,2205.00
404,857.29,1074.21,2155.00
405,857.42,1076.01,2013.00
406,857.56,1077.81,1861.00
407,857.69,1079.61,1718.00
408,857.82,1081.41,1644.00
409,857.95,1083.21,1650.00
410,858.09,1085.01,1724.00
411,858.22,1086.81,1889.00
412,858.35,1088.60,2100.00
413,858.48,1090.40,2277.00
414,858.61,1092.19,2401.00
415,858.75,1093.98,2488.00
416,858.88,1095.77,2492.00
417,859.01,1097.56,2345.00
418,859.14,1099.35,2195.00
419,859.28,1101.14,2075.00
420,859.41,1102.93,2041.00
421,859.54,1104.72,2186.00
422,859.67,1106.50,2420.00
423,859.80,1108.29,2787.00
424,859.94,1110.07,3290.00
425,860.07,1111.85,3835.00
426,860.20,1113.63,4310.00
427,860.33,1115.41,4636.00
428,860.46,1117.19,4763.00
429,860.59,1118.97,4666.00
430,860.73,1120.75,4269.00
431,860.86,1122.53,3858.00
432,860.99,1124.30,3385.00
433,861.12,1126.08,2920.00
434,861.25,1127.85,2532.00
435,861.38,1129.62,2209.00
436,861.51,1131.39,1948.00
437,861.65,1133.17,1781.00
438,861.78,1134.93,1641.00
439,861.91,1136.70,1609.00
440,862.04,1138.47,1586.00
441,862.17,1140.24,1593.00
442,862.30,1142.00,1577.00
443,862.43,1143.77,1553.00
444,862.57,1145.53,1609.00
445,862.70,1147.29,1625.00
446,862.83,1149.06,1627.00
447,862.96,1150.82,1699.00
448,863.09,1152.58,1702.00
449,863.22,1154.34,1785.00
450,863.35,1156.09,1841.00
451,863.48,1157.85,1944.00
452,863.61,1159.61,2098.00
453,863.74,1161.36,2265.00
454,863.88,1163.11,2502.00
455,864.01,1164.87,2789.00
456,864.14,1166.62,2920.00
457,864.27,1168.37,3101.00
458,864.40,1170.12,3361.00
459,864.53,1171.87,3568.00
460,864.66,1173.62,3972.00
461,864.79,1175.36,4762.00
462,864.92,1177.11,6224.00
463,865.05,1178.85,8264.00
464,865.18,1180.60,10383.00
465,865.31,1182.34,12148.00
466,865.44,1184.08,13155.00
467,865.57,1185.82,13339.00
468,865.70,1187.56,12419.00
469,865.83,1189.30,11119.00
470,865.96,1191.04,9543.00
471,866.10,1192.78,8119.00
472,866.23,1194.51,6886.00
473,866.36,1196.25,6103.00
474,866.49,1197.98,5690.00
475,866.62,1199.71,5737.00
476,866.75,1201.45,6131.00
477,866.88,1203.18,6531.00
478,867.01,1204.91,6770.00
479,867.14,1206.64,6617.00
480,867.27,1208.36,6253.00
481,867.40,1210.09,5536.00
482,867.53,1211.82,4754.00
483,867.66,1213.54,4219.00
484,867.79,1215.27,3903.00
485,867.92,1216.99,3732.00
486,868.04,1218.71,3734.00
487,868.17,1220.43,3779.00
488,868.30,1222.15,3605.00
489,868.43,1223.87,3485.00
490,868.56,1225.59,3164.00
491,868.69,1227.31,2865.00
492,868.82,1229.02,2629.00
493,868.95,1230.74,2456.00
494,869.08,1232.45,2410.00
495,869.21,1234.16,2332.00
496,869.34,1235.88,2348.00
497,869.47,1237.59,2364.00
498,869.60,1239.30,2490.00
499,869.73,1241.01,2635.00
500,869.86,1242.71,2734.00
501,869.99,1244.42,2911.00
502,870.12,1246.13,3123.00
503,870.24,1247.83,3253.00
504,870.37,1249.54,3451.00
505,870.50,1251.24,3470.00
506,870.63,1252.94,3535.00
507,870.76,1254.64,3462.00
508,870.89,1256.34,3310.00
509,871.02,1258.04,3137.00
510,871.15,1259.74,3060.00
511,871.28,1261.44,2975.00
512,871.41,1263.13,2897.00
513,871.53,1264.83,2861.00
514,871.66,1266.52,2910.00
515,871.79,1268.22,2891.00
516,871.92,1269.91,2946.00
517,872.05,1271.60,3048.00
518,872.18,1273.29,3234.00
519,872.31,1274.98,3388.00
520,872.43,1276.67,3694.00
521,872.56,1278.35,3999.00
522,872.69,1280.04,4349.00
523,872.82,1281.73,4693.00
524,872.95,1283.41,4763.00
525,873.08,1285.09,4910.00
526,873.20,1286.78,4894.00
527,873.33,1288.46,4901.00
528,873.46,1290.14,4929.00
529,873.59,1291.82,4899.00
530,873.72,1293.49,4824.00
531,873.84,1295.17,4748.00
532,873.97,1296.85,4516.00
533,874.10,1298.52,4341.00
534,874.23,1300.20,4130.00
535,874.36,1301.87,4051.00
536,874.48,1303.54,4132.00
537,874.61,1305.21,4085.00
538,874.74,1306.88,4081.00
539,874.87,1308.55,4142.00
540,875.00,1310.22,4090.00
541,875.12,1311.89,3965.00
542,875.25,1313.56,3940.00
543,875.38,1315.22,3915.00
544,875.51,1316.89,3968.00
545,875.63,1318.55,4062.00
546,875.76,1320.21,4265.00
547,875.89,1321.87,4480.00
548,876.02,1323.53,4714.00
549,876.14,1325.19,4831.00
550,876.27,1326.85,4917.00
551,876.40,1328.51,5006.00
552,876.52,1330.16,4874.00
553,876.65,1331.82,4768.00
554,876.78,1333.47,4756.00
555,876.91,1335.13,4793.00
556,877.03,1336.78,4941.00
557,877.16,1338.43,5227.00
558,877.29,1340.08,5394.00
559,877.41,1341.73,5568.00
560,877.54,1343.38,5690.00
561,877.67,1345.03,5676.00
562,877.80,1346.67,5516.00
563,877.92,1348.32,5222.00
564,878.05,1349.96,4946.00
565,878.18,1351.61,4710.00
566,878.30,1353.25,4526.00
567,878.43,1354.89,4357.00
568,878.56,1356.53,4306.00
569,878.68,1358.17,4301.00
570,878.81,1359.81,4332.00
571,878.93,1361.45,4443.00
572,879.06,1363.08,4561.00
573,879.19,1364.72,4600.00
574,879.31,1366.35,4575.00
575,879.44,1367.99,4495.00
576,879.57,1369.62,4340.00
577,879.69,1371.25,4166.00
578,879.82,1372.88,4056.00
579,879.95,1374.51,3980.00
580,880.07,1376.14,3991.00
581,880.20,1377.77,3955.00
582,880.32,1379.39,3938.00
583,880.45,1381.02,3886.00
584,880.58,1382.64,3901.00
585,880.70,1384.27,3873.00
586,880.83,1385.89,3873.00
587,880.95,1387.51,3803.00
588,881.08,1389.13,3844.00
589,881.20,1390.75,3831.00
590,881.33,1392.37,3886.00
591,881.46,1393.99,3847.00
592,881.58,1395.60,3882.00
593,881.71,1397.22,3886.00
594,881.83,1398.83,3984.00
595,881.96,1400.45,3972.00
596,882.08,1402.06,4059.00
597,882.21,1403.67,4187.00
598,882.33,1405.28,4254.00
599,882.46,1406.89,4473.00
600,882.58,1408.50,4567.00
601,882.71,1410.11,4707.00
602,882.84,1411.71,4976.00
603,882.96,1413.32,5102.00
604,883.09,1414.92,5270.00
605,883.21,1416.53,5342.00
606,883.34,1418.13,5374.00
607,883.46,1419.73,5413.00
608,883.59,1421.33,5264.00
609,883.71,1422.93,5168.00
610,883.84,1424.53,4984.00
611,883.96,1426.13,4866.00
612,884.09,1427.72,4687.00
613,884.21,1429.32,4604.00
614,884.33,1430.91,4527.00
615,884.46,1432.51,4671.00
616,884.58,1434.10,4701.00
617,884.71,1435.69,4942.00
618,884.83,1437.28,5078.00
619,884.96,1438.87,5229.00
620,885.08,1440.46,5522.00
621,885.21,1442.05,5850.00
622,885.33,1443.64,6260.00
623,885.45,1445.22,6719.00
624,885.58,1446.81,7240.00
625,885.70,1448.39,7539.00
626,885.83,1449.97,7552.00
627,885.95,1451.55,7437.00
628,886.08,1453.14,7248.00
629,886.20,1454.72,6885.00
630,886.32,1456.29,6679.00
631,886.45,1457.87,6636.00
632,886.57,1459.45,6653.00
633,886.70,1461.02,6618.00
634,886.82,1462.60,6510.00
635,886.94,1464.17,6261.00
636,887.07,1465.75,5974.00
637,887.19,1467.32,5540.00
638,887.31,1468.89,5340.00
639,887.44,1470.46,5148.00
640,887.56,1472.03,5006.00
641,887.68,1473.59,4975.00
642,887.81,1475.16,4870.00
643,887.93,1476.73,4887.00
644,888.06,1478.29,4720.00
645,888.18,1479.86,4606.00
646,888.30,1481.42,4375.00
647,888.43,1482.98,4210.00
648,888.55,1484.54,4124.00
649,888.67,1486.10,3934.00
650,888.79,1487.66,3905.00
651,888.92,1489.22,3877.00
652,889.04,1490.77,3861.00
653,889.16,1492.33,3828.00
654,889.29,1493.88,3768.00
655,889.41,1495.44,3805.00
656,889.53,1496.99,3765.00
657,889.66,1498.54,3751.00
658,889.78,1500.09,3740.00
659,889.90,1501.64,3733.00
660,890.02,1503.19,3762.00
661,890.15,1504.74,3791.00
662,890.27,1506.29,3742.00
663,890.39,1507.83,3757.00
664,890.51,1509.38,3747.00
665,890.64,1510.92,3740.00
666,890.76,1512.47,3762.00
667,890.88,1514.01,3743.00
668,891.00,1515.55,3807.00
669,891.13,1517.09,3738.00
670,891.25,1518.63,3695.00
671,891.37,1520.16,3693.00
672,891.49,1521.70,3719.00
673,891.61,1523.24,3734.00
674,891.74,1524.77,3656.00
675,891.86,1526.31,3660.00
676,891.98,1527.84,3660.00
677,892.10,1529.37,3689.00
678,892.22,1530.90,3666.00
679,892.35,1532.43,3664.00
680,892.47,1533.96,3691.00
681,892.59,1535.49,3694.00
682,892.71,1537.02,3735.00
683,892.83,1538.54,3670.00
684,892.95,1540.07,3738.00
685,893.08,1541.59,3744.00
686,893.20,1543.11,3740.00
687,893.32,1544.64,3723.00
688,893.44,1546.16,3713.00
689,893.56,1547.68,3677.00
690,893.68,1549.20,3665.00
691,893.80,1550.71,3620.00
692,893.92,1552.23,3607.00
693,894.05,1553.75,3654.00
694,894.17,1555.26,3600.00
695,894.29,1556.78,3578.00
696,894.41,1558.29,3571.00
697,894.53,1559.80,3614.00
698,894.65,1561.31,3567.00
699,894.77,1562.82,3615.00
700,894.89,1564.33,3666.00
701,895.01,1565.84,3759.00
702,895.13,1567.35,3799.00
703,895.26,1568.85,4008.00
704,895.38,1570.36,4180.00
705,895.50,1571.86,4364.00
706,895.62,1573.36,4434.00
707,895.74,1574.87,4353.00
708,895.86,1576.37,4301.00
709,895.98,1577.87,4126.00
710,896.10,1579.37,3911.00
711,896.22,1580.87,3734.00
712,896.34,1582.36,3641.00
713,896.46,1583.86,3481.00
714,896.58,1585.35,3453.00
715,896.70,1586.85,3472.00
716,896.82,1588.34,3455.00
717,896.94,1589.83,3464.00
718,897.06,1591.32,3531.00
719,897.18,1592.81,3607.00
720,897.30,1594.30,3708.00
721,897.42,1595.79,3847.00
722,897.54,1597.28,4060.00
723,897.66,1598.76,4385.00
724,897.78,1600.25,4738.00
725,897.90,1601.73,5311.00
726,898.02,1603.22,5988.00
727,898.14,1604.70,7022.00
728,898.26,1606.18,8125.00
729,898.38,1607.66,9173.00
730,898.50,1609.14,9987.00
731,898.62,1610.62,10419.00
732,898.73,1612.10,10525.00
733,898.85,1613.57,9974.00
734,898.97,1615.05,9075.00
735,899.09,1616.52,8011.00
736,899.21,1617.99,6812.00
737,899.33,1619.47,5894.00
738,899.45,1620.94,5234.00
739,899.57,1622.41,4623.00
740,899.69,1623.88,4210.00
741,899.81,1625.35,3989.00
742,899.92,1626.81,3808.00
743,900.04,1628.28,3611.00
744,900.16,1629.74,3529.00
745,900.28,1631.21,3405.00
746,900.40,1632.67,3346.00
747,900.52,1634.13,3281.00
748,900.64,1635.60,3278.00
749,900.76,1637.06,3224.00
750,900.87,1638.51,3156.00
751,900.99,1639.97,3188.00
752,901.11,1641.43,3124.00
753,901.23,1642.89,3137.00
754,901.35,1644.34,3116.00
755,901.46,1645.80,3088.00
756,901.58,1647.25,3082.00
757,901.70,1648.70,3038.00
758,901.82,1650.15,3002.00
759,901.94,1651.60,3004.00
760,902.05,1653.05,3030.00
761,902.17,1654.50,2918.00
762,902.29,1655.95,2946.00
763,902.41,1657.40,2994.00
764,902.53,1658.84,2948.00
765,902.64,1660.28,2933.00
766,902.76,1661.73,2938.00
767,902.88,1663.17,2956.00
768,903.00,1664.61,2918.00
769,903.11,1666.05,2915.00
770,903.23,1667.49,2876.00
771,903.35,1668.93,2886.00
772,903.47,1670.37,2870.00
773,903.58,1671.80,2869.00
774,903.70,1673.24,2850.00
775,903.82,1674.67,2834.00
776,903.93,1676.11,2869.00
777,904.05,1677.54,2844.00
778,904.17,1678.97,2829.00
779,904.29,1680.40,2855.00
780,904.40,1681.83,2823.00
781,904.52,1683.26,2821.00
782,904.64,1684.69,2760.00
783,904.75,1686.11,2751.00
784,904.87,1687.54,2726.00
785,904.99,1688.96,2736.00
786,905.10,1690.39,2752.00
787,905.22,1691.81,2739.00
788,905.34,1693.23,2714.00
789,905.45,1694.65,2675.00
790,905.57,1696.07,2703.00
791,905.69,1697.49,2667.00
792,905.80,1698.91,2682.00
793,905.92,1700.32,2578.00
794,906.03,1701.74,2664.00
795,906.15,1703.15,2593.00
796,906.27,1704.57,2575.00
797,906.38,1705.98,2599.00
798,906.50,1707.39,2515.00
799,906.61,1708.80,2522.00
800,906.73,1710.21,2532.00
801,906.85,1711.62,2528.00
802,906.96,1713.03,2529.00
803,907.08,1714.43,2500.00
804,907.19,1715.84,2492.00
805,907.31,1717.24,2462.00
806,907.42,1718.65,2462.00
807,907.54,1720.05,2432.00
808,907.65,1721.45,2393.00
809,907.77,1722.85,2397.00
810,907.89,1724.25,2338.00
811,908.00,1725.65,2333.00
812,908.12,1727.05,2328.00
813,908.23,1728.44,2334.00
814,908.35,1729.84,2306.00
815,908.46,1731.23,2300.00
816,908.58,1732.63,2275.00
817,908.69,1734.02,2256.00
818,908.81,1735.41,2270.00
819,908.92,1736.80,2294.00
820,909.04,1738.19,2269.00
821,909.15,1739.58,2213.00
822,909.27,1740.97,2192.00
823,909.38,1742.35,2199.00
824,909.49,1743.74,2188.00
825,909.61,1745.12,2147.00
826,909.72,1746.51,2169.00
827,909.84,1747.89,2148.00
828,909.95,1749.27,2110.00
829,910.07,1750.65,2125.00
830,910.18,1752.03,2133.00
831,910.30,1753.41,2104.00
832,910.41,1754.79,2089.00
833,910.52,1756.17,2074.00
834,910.64,1757.54,2076.00
835,910.75,1758.92,2030.00
836,910.87,1760.29,2055.00
837,910.98,1761.66,2032.00
838,911.09,1763.03,2016.00
839,911.21,1764.41,2019.00
840,911.32,1765.78,2010.00
841,911.43,1767.14,2008.00
842,911.55,1768.51,2013.00
843,911.66,1769.88,1990.00
844,911.78,1771.24,2007.00
845,911.89,1772.61,1980.00
846,912.00,1773.97,1942.00
847,912.12,1775.34,1965.00
848,912.23,1776.70,1930.00
849,912.34,1778.06,1923.00
850,912.46,1779.42,1923.00
851,912.57,1780.78,1921.00
852,912.68,1782.13,1863.00
853,912.79,1783.49,1914.00
854,912.91,1784.85,1887.00
855,913.02,1786.20,1860.00
856,913.13,1787.56,1876.00
857,913.25,1788.91,1821.00
858,913.36,1790.26,1893.00
859,913.47,1791.61,1846.00
860,913.58,1792.96,1829.00
861,913.70,1794.31,1834.00
862,913.81,1795.66,1811.00
863,913.92,1797.00,1809.00
864,914.03,1798.35,1771.00
865,914.15,1799.69,1822.00
866,914.26,1801.04,1778.00
867,914.37,1802.38,1754.00
868,914.48,1803.72,1783.00
869,914.60,1805.06,1750.00
870,914.71,1806.40,1754.00
871,914.82,1807.74,1735.00
872,914.93,1809.08,1735.00
873,915.04,1810.42,1766.00
874,915.16,1811.75,1725.00
875,915.27,1813.09,1750.00
876,915.38,1814.42,1709.00
877,915.49,1815.76,1754.00
878,915.60,1817.09,1673.00
879,915.71,1818.42,1731.00
880,915.83,1819.75,1732.00
881,915.94,1821.08,1692.00
882,916.05,1822.40,1707.00
883,916.16,1823.73,1687.00
884,916.27,1825.06,1672.00
885,916.38,1826.38,1684.00
886,916.49,1827.71,1653.00
887,916.61,1829.03,1671.00
888,916.72,1830.35,1696.00
889,916.83,1831.67,1698.00
890,916.94,1832.99,1655.00
891,917.05,1834.31,1652.00
892,917.16,1835.63,1634.00
893,917.27,1836.95,1654.00
894,917.38,1838.26,1638.00
895,917.49,1839.58,1629.00
896,917.60,1840.89,1600.00
897,917.71,1842.20,1634.00
898,917.82,1843.52,1583.00
899,917.93,1844.83,1601.00
900,918.04,1846.14,1584.00
901,918.15,1847.45,1593.00
902,918.27,1848.75,1611.00
903,918.38,1850.06,1573.00
904,918.49,1851.37,1568.00
905,918.60,1852.67,1568.00
906,918.71,1853.98,1579.00
907,918.82,1855.28,1567.00
908,918.93,1856.58,1573.00
909,919.04,1857.88,1549.00
910,919.15,1859.18,1543.00
911,919.26,1860.48,1553.00
912,919.36,1861.78,1544.00
913,919.47,1863.08,1541.00
914,919.58,1864.37,1518.00
915,919.69,1865.67,1494.00
916,919.80,1866.96,1524.00
917,919.91,1868.26,1509.00
918,920.02,1869.55,1505.00
919,920.13,1870.84,1506.00
920,920.24,1872.13,1495.00
921,920.35,1873.42,1501.00
922,920.46,1874.71,1527.00
923,920.57,1875.99,1488.00
924,920.68,1877.28,1480.00
925,920.79,1878.56,1513.00
926,920.89,1879.85,1474.00
927,921.00,1881.13,1476.00
928,921.11,1882.41,1465.00
929,921.22,1883.69,1467.00
930,921.33,1884.97,1469.00
931,921.44,1886.25,1471.00
932,921.55,1887.53,1454.00
933,921.66,1888.81,1473.00
934,921.76,1890.09,1440.00
935,921.87,1891.36,1377.00
936,921.98,1892.63,1406.00
937,922.09,1893.91,1429.00
938,922.20,1895.18,1415.00
939,922.30,1896.45,1414.00
940,922.41,1897.72,1425.00
941,922.52,1898.99,1381.00
942,922.63,1900.26,1415.00
943,922.74,1901.53,1402.00
944,922.84,1902.79,1349.00
945,922.95,1904.06,1383.00
946,923.06,1905.32,1372.00
947,923.17,1906.58,1362.00
948,923.28,1907.85,1332.00
949,923.38,1909.11,1310.00
950,923.49,1910.37,1301.00
951,923.60,1911.63,1324.00
952,923.70,1912.89,1290.00
953,923.81,1914.14,1277.00
954,923.92,1915.40,1307.00
955,924.03,1916.65,1277.00
956,924.13,1917.91,1279.00
957,924.24,1919.16,1261.00
958,924.35,1920.41,1256.00
959,924.45,1921.67,1235.00
960,924.56,1922.92,1243.00
961,924.67,1924.17,1218.00
962,924.78,1925.41,1206.00
963,924.88,1926.66,1237.00
964,924.99,1927.91,1215.00
965,925.09,1929.15,1235.00
966,925.20,1930.40,1193.00
967,925.31,1931.64,1227.00
968,925.41,1932.88,1197.00
969,925.52,1934.12,1193.00
970,925.63,1935.36,1199.00
971,925.73,1936.60,1181.00
972,925.84,1937.84,1166.00
973,925.95,1939.08,1178.00
974,926.05,1940.32,1142.00
975,926.16,1941.55,1140.00
976,926.26,1942.79,1172.00
977,926.37,1944.02,1155.00
978,926.47,1945.25,1134.00
979,926.58,1946.48,1121.00
980,926.69,1947.71,1100.00
981,926.79,1948.94,1109.00
982,926.90,1950.17,1109.00
983,927.00,1951.40,1090.00
984,927.11,1952.62,1114.00
985,927.21,1953.85,1078.00
986,927.32,1955.07,1098.00
987,927.42,1956.30,1076.00
988,927.53,1957.52,1065.00
989,927.63,1958.74,1033.00
990,927.74,1959.96,1052.00
991,927.84,1961.18,1019.00
992,927.95,1962.40,1049.00
993,928.05,1963.62,1022.00
994,928.16,1964.83,995.00
995,928.26,1966.05,997.00
996,928.37,1967.26,999.00
997,928.47,1968.48,968.00
998,928.58,1969.69,978.00
999,928.68,1970.90,948.00
1000,928.79,1972.11,955.00
1001,928.89,1973.32,949.00
1002,928.99,1974.53,965.00
1003,929.10,1975.74,965.00
1004,929.20,1976.94,962.00
1005,929.31,1978.15,915.00
1006,929.41,1979.35,968.00
1007,929.52,1980.56,925.00
1008,929.62,1981.76,915.00
1009,929.72,1982.96,888.00
1010,929.83,1984.16,864.00
1011,929.93,1985.36,899.00
1012,930.03,1986.56,852.00
1013,930.14,1987.76,896.00
1014,930.24,1988.95,871.00
1015,930.34,1990.15,871.00
1016,930.45,1991.34,856.00
1017,930.55,1992.54,842.00
1018,930.65,1993.73,837.00
1019,930.76,1994.92,850.00
1020,930.86,1996.11,824.00
1021,930.96,1997.30,817.00
1022,931.07,1998.49,836.00
1023,931.17,1999.68,816.00
