ENLIGHTEN Version,1.7.2
Measurement ID,20190904-085911-272806-WP-00340
Serial Number,WP-00340
Label,08:59:11 WP-00340
Integration Time,500
Timestamp,59:11.3
Note,
Temperature,9.993816972
CCD C0,801.7174072
CCD C1,0.141220003
CCD C2,-5.61E-06
CCD C3,-8.54E-09
CCD Offset,0
CCD Gain,1.9
Laser Wavelength,785
Laser Enable,TRUE
Laser Power,100
Laser Temperature,0
Pixel Count,1024
,
Wavenumber,Processed
265.63,146
267.83,161
270.02,183
272.22,215
274.41,251
276.6,308
278.8,373
280.99,462
283.18,567
285.37,681
287.55,778
289.74,959
291.93,1083
294.11,1318
296.3,1485
298.48,1731
300.66,1969
302.84,2166
305.02,2306
307.2,2292
309.38,2279
311.56,2151
313.74,2024
315.91,1931
318.09,1848
320.26,1823
322.43,1847
324.61,1844
326.78,1864
328.95,1844
331.12,1825
333.28,1845
335.45,1830
337.62,1759
339.78,1757
341.95,1785
344.11,1801
346.27,1895
348.43,2005
350.59,2254
352.75,2346
354.91,2485
357.07,2517
359.23,2549
361.38,2454
363.54,2283
365.69,2085
367.84,1885
370,1762
372.15,1754
374.3,1729
376.45,1744
378.59,1815
380.74,1877
382.89,1844
385.03,1796
387.18,1750
389.32,1706
391.46,1644
393.6,1617
395.74,1628
397.88,1620
400.02,1670
402.16,1731
404.29,1790
406.43,1929
408.57,2127
410.7,2478
412.83,2802
414.96,3109
417.09,3346
419.22,3403
421.35,3288
423.48,3093
425.61,2842
427.73,2690
429.86,2543
431.98,2433
434.11,2351
436.23,2151
438.35,1971
440.47,1830
442.59,1704
444.71,1583
446.82,1522
448.94,1436
451.05,1438
453.17,1390
455.28,1396
457.39,1394
459.51,1364
461.62,1368
463.73,1362
465.83,1295
467.94,1322
470.05,1313
472.15,1316
474.26,1327
476.36,1364
478.47,1360
480.57,1440
482.67,1456
484.77,1493
486.87,1627
488.97,1762
491.06,1866
493.16,1948
495.25,2013
497.35,1969
499.44,1910
501.53,1745
503.62,1624
505.71,1581
507.8,1551
509.89,1611
511.98,1651
514.07,1632
516.15,1514
518.24,1396
520.32,1275
522.4,1072
524.48,990
526.56,922
528.64,884
530.72,839
532.8,845
534.88,801
536.95,808
539.03,778
541.1,799
543.17,766
545.24,762
547.32,789
549.39,769
551.45,764
553.52,787
555.59,782
557.66,768
559.72,776
561.78,795
563.85,784
565.91,781
567.97,793
570.03,831
572.09,839
574.15,917
576.21,1019
578.26,1154
580.32,1291
582.37,1415
584.42,1476
586.48,1501
588.53,1393
590.58,1335
592.63,1174
594.68,1042
596.72,953
598.77,865
600.82,845
602.86,828
604.9,801
606.95,792
608.99,759
611.03,785
613.07,795
615.11,780
617.15,802
619.18,868
621.22,955
623.25,1137
625.29,1569
627.32,2271
629.35,3215
631.38,4127
633.41,4674
635.44,4357
637.47,4041
639.5,3111
641.52,2195
643.55,1552
645.57,1223
647.6,1088
649.62,1054
651.64,1066
653.66,1130
655.68,1216
657.7,1291
659.71,1373
661.73,1507
663.75,1645
665.76,1698
667.77,1737
669.79,1638
671.8,1602
673.81,1427
675.82,1314
677.83,1173
679.83,1071
681.84,966
683.84,887
685.85,861
687.85,867
689.86,861
691.86,886
693.86,841
695.86,906
697.86,943
699.85,1025
701.85,1117
703.85,1189
705.84,1222
707.84,1216
709.83,1149
711.82,1091
713.81,978
715.8,890
717.79,843
719.78,792
721.76,763
723.75,793
725.74,803
727.72,815
729.7,853
731.68,909
733.67,938
735.65,1019
737.62,1158
739.6,1377
741.58,1712
743.56,2264
745.53,2946
747.51,3698
749.48,4278
751.45,4506
753.42,4385
755.39,3794
757.36,3097
759.33,2492
761.3,1954
763.26,1690
765.23,1567
767.19,1531
769.16,1525
771.12,1548
773.08,1633
775.04,1824
777,2395
778.96,3314
780.92,4532
782.87,5772
784.83,6496
786.78,6824
788.74,6304
790.69,5246
792.64,4144
794.59,3270
796.54,2751
798.49,2393
800.44,2332
802.38,2347
804.33,2361
806.27,2524
808.22,2739
810.16,2934
812.1,3340
814.04,3931
815.98,4714
817.92,5458
819.86,6180
821.8,6850
823.73,7284
825.67,7530
827.6,7760
829.53,7870
831.47,8115
833.4,8319
835.33,8522
837.26,8526
839.18,8170
841.11,7735
843.04,7092
844.96,6184
846.89,5284
848.81,4463
850.73,3757
852.65,3219
854.57,2753
856.49,2437
858.41,2146
860.33,1863
862.24,1644
864.16,1514
866.07,1434
867.99,1426
869.9,1476
871.81,1564
873.72,1737
875.63,1986
877.54,2192
879.44,2344
881.35,2545
883.26,2542
885.16,2591
887.06,2619
888.97,2534
890.87,2481
892.77,2300
894.67,2113
896.57,1880
898.46,1684
900.36,1434
902.26,1313
904.15,1161
906.04,1081
907.94,1056
909.83,1012
911.72,1067
913.61,1107
915.5,1196
917.38,1299
919.27,1372
921.16,1402
923.04,1404
924.92,1321
926.81,1200
928.69,1132
930.57,1144
932.45,1192
934.33,1355
936.2,1617
938.08,2033
939.96,2460
941.83,2838
943.71,3170
945.58,3409
947.45,3559
949.32,3694
951.19,3851
953.06,3959
954.93,3868
956.79,3526
958.66,3013
960.52,2489
962.39,2001
964.25,1607
966.11,1411
967.97,1332
969.83,1294
971.69,1252
973.55,1185
975.41,1090
977.26,1039
979.12,999
980.97,986
982.82,1011
984.68,1041
986.53,1115
988.38,1234
990.23,1396
992.07,1758
993.92,2273
995.77,3023
997.61,3985
999.46,4773
1001.3,5319
1003.14,5332
1004.98,4873
1006.82,3980
1008.66,2996
1010.5,2249
1012.34,1706
1014.17,1396
1016.01,1240
1017.84,1135
1019.68,1115
1021.51,1090
1023.34,1050
1025.17,1023
1027,983
1028.83,978
1030.65,945
1032.48,964
1034.31,944
1036.13,967
1037.95,932
1039.77,972
1041.6,1010
1043.42,1014
1045.24,1002
1047.05,1050
1048.87,1124
1050.69,1223
1052.5,1344
1054.32,1445
1056.13,1556
1057.94,1617
1059.75,1649
1061.56,1615
1063.37,1651
1065.18,1745
1066.99,1892
1068.8,2016
1070.6,2146
1072.41,2189
1074.21,2096
1076.01,1966
1077.81,1797
1079.61,1660
1081.41,1634
1083.21,1638
1085.01,1739
1086.81,1877
1088.6,2068
1090.4,2264
1092.19,2422
1093.98,2500
1095.77,2429
1097.56,2304
1099.35,2188
1101.14,2057
1102.93,2058
1104.72,2164
1106.5,2400
1108.29,2811
1110.07,3393
1111.85,3928
1113.63,4501
1115.41,4838
1117.19,4933
1118.97,4762
1120.75,4402
1122.53,3917
1124.3,3405
1126.08,2894
1127.85,2487
1129.62,2138
1131.39,1849
1133.17,1721
1134.93,1606
1136.7,1552
1138.47,1503
1140.24,1520
1142,1513
1143.77,1490
1145.53,1503
1147.29,1573
1149.06,1529
1150.82,1635
1152.58,1619
1154.34,1714
1156.09,1798
1157.85,1925
1159.61,2098
1161.36,2292
1163.11,2499
1164.87,2759
1166.62,3005
1168.37,3207
1170.12,3443
1171.87,3670
1173.62,4176
1175.36,5129
1177.11,6709
1178.85,8996
1180.6,11262
1182.34,13040
1184.08,14039
1185.82,14066
1187.56,13073
1189.3,11597
1191.04,9894
1192.78,8391
1194.51,7235
1196.25,6444
1197.98,5949
1199.71,6059
1201.45,6426
1203.18,6849
1204.91,7113
1206.64,6961
1208.36,6487
1210.09,5770
1211.82,4960
1213.54,4351
1215.27,3989
1216.99,3832
1218.71,3879
1220.43,3832
1222.15,3641
1223.87,3462
1225.59,3154
1227.31,2853
1229.02,2637
1230.74,2511
1232.45,2426
1234.16,2344
1235.88,2384
1237.59,2424
1239.3,2490
1241.01,2636
1242.71,2797
1244.42,3015
1246.13,3195
1247.83,3394
1249.54,3538
1251.24,3586
1252.94,3550
1254.64,3483
1256.34,3355
1258.04,3198
1259.74,3105
1261.44,2991
1263.13,2949
1264.83,2909
1266.52,2895
1268.22,2892
1269.91,2981
1271.6,3072
1273.29,3278
1274.98,3541
1276.67,3811
1278.35,4231
1280.04,4535
1281.73,4786
1283.41,5003
1285.09,5145
1286.78,5134
1288.46,5131
1290.14,5204
1291.82,5087
1293.49,4991
1295.17,4895
1296.85,4663
1298.52,4412
1300.2,4269
1301.87,4145
1303.54,4187
1305.21,4263
1306.88,4261
1308.55,4277
1310.22,4239
1311.89,4113
1313.56,4049
1315.22,4062
1316.89,4058
1318.55,4217
1320.21,4489
1321.87,4684
1323.53,4920
1325.19,5017
1326.85,5100
1328.51,5176
1330.16,5081
1331.82,5011
1333.47,4937
1335.13,5016
1336.78,5197
1338.43,5446
1340.08,5656
1341.73,5865
1343.38,5940
1345.03,5915
1346.67,5750
1348.32,5393
1349.96,5169
1351.61,4809
1353.25,4632
1354.89,4497
1356.53,4441
1358.17,4503
1359.81,4522
1361.45,4691
1363.08,4741
1364.72,4786
1366.35,4722
1367.99,4651
1369.62,4432
1371.25,4353
1372.88,4187
1374.51,4115
1376.14,4071
1377.77,4100
1379.39,4017
1381.02,3982
1382.64,4014
1384.27,4010
1385.89,4035
1387.51,4010
1389.13,3953
1390.75,3999
1392.37,3986
1393.99,4028
1395.6,4024
1397.22,4048
1398.83,4113
1400.45,4145
1402.06,4191
1403.67,4280
1405.28,4499
1406.89,4670
1408.5,4807
1410.11,5001
1411.71,5182
1413.32,5281
1414.92,5511
1416.53,5605
1418.13,5620
1419.73,5648
1421.33,5494
1422.93,5338
1424.53,5142
1426.13,5007
1427.72,4841
1429.32,4723
1430.91,4749
1432.51,4798
1434.1,5022
1435.69,5060
1437.28,5264
1438.87,5576
1440.46,5795
1442.05,6126
1443.64,6690
1445.22,7202
1446.81,7673
1448.39,7914
1449.97,8000
1451.55,7847
1453.14,7558
1454.72,7227
1456.29,7090
1457.87,7012
1459.45,6985
1461.02,6978
1462.6,6741
1464.17,6592
1465.75,6211
1467.32,5793
1468.89,5511
1470.46,5262
1472.03,5195
1473.59,5233
1475.16,5115
1476.73,5093
1478.29,5014
1479.86,4693
1481.42,4558
1482.98,4343
1484.54,4211
1486.1,4124
1487.66,4058
1489.22,3991
1490.77,3972
1492.33,3972
1493.88,3931
1495.44,3967
1496.99,3906
1498.54,3830
1500.09,3878
1501.64,3896
1503.19,3893
1504.74,3896
1506.29,3862
1507.83,3865
1509.38,3871
1510.92,3896
1512.47,3843
1514.01,3912
1515.55,3866
1517.09,3839
1518.63,3862
1520.16,3810
1521.7,3822
1523.24,3765
1524.77,3752
1526.31,3747
1527.84,3734
1529.37,3793
1530.9,3822
1532.43,3778
1533.96,3806
1535.49,3862
1537.02,3829
1538.54,3846
1540.07,3881
1541.59,3875
1543.11,3860
1544.64,3892
1546.16,3856
1547.68,3810
1549.2,3820
1550.71,3752
1552.23,3755
1553.75,3729
1555.26,3716
1556.78,3674
1558.29,3689
1559.8,3688
1561.31,3700
1562.82,3773
1564.33,3736
1565.84,3909
1567.35,3989
1568.85,4208
1570.36,4380
1571.86,4470
1573.36,4634
1574.87,4534
1576.37,4444
1577.87,4270
1579.37,4041
1580.87,3845
1582.36,3684
1583.86,3609
1585.35,3551
1586.85,3551
1588.34,3575
1589.83,3559
1591.32,3632
1592.81,3708
1594.3,3832
1595.79,4050
1597.28,4221
1598.76,4603
1600.25,5019
1601.73,5656
1603.22,6554
1604.7,7537
1606.18,8680
1607.66,9822
1609.14,10686
1610.62,11111
1612.1,11081
1613.57,10436
1615.05,9494
1616.52,8322
1617.99,7128
1619.47,6143
1620.94,5317
1622.41,4822
1623.88,4395
1625.35,4092
1626.81,3890
1628.28,3711
1629.74,3620
1631.21,3549
1632.67,3449
1634.13,3441
1635.6,3293
1637.06,3331
1638.51,3287
1639.97,3249
1641.43,3238
1642.89,3236
1644.34,3177
1645.8,3161
1647.25,3178
1648.7,3098
1650.15,3099
1651.6,3083
1653.05,3114
1654.5,3066
1655.95,3045
1657.4,3086
1658.84,3028
1660.28,3049
1661.73,3000
1663.17,3024
1664.61,2981
1666.05,2942
1667.49,2930
1668.93,2955
1670.37,2916
1671.8,2931
1673.24,2979
1674.67,2947
1676.11,2930
1677.54,2901
1678.97,2916
1680.4,2892
1681.83,2876
1683.26,2853
1684.69,2865
1686.11,2833
1687.54,2831
1688.96,2829
1690.39,2783
1691.81,2802
1693.23,2777
1694.65,2753
1696.07,2760
1697.49,2711
1698.91,2724
1700.32,2675
1701.74,2669
1703.15,2631
1704.57,2699
1705.98,2623
1707.39,2654
1708.8,2631
1710.21,2618
1711.62,2581
1713.03,2543
1714.43,2555
1715.84,2589
1717.24,2505
1718.65,2487
1720.05,2440
1721.45,2485
1722.85,2433
1724.25,2400
1725.65,2400
1727.05,2369
1728.44,2363
1729.84,2304
1731.23,2319
1732.63,2321
1734.02,2328
1735.41,2331
1736.8,2277
1738.19,2249
1739.58,2281
1740.97,2255
1742.35,2227
1743.74,2207
1745.12,2228
1746.51,2232
1747.89,2165
1749.27,2178
1750.65,2125
1752.03,2097
1753.41,2152
1754.79,2115
1756.17,2112
1757.54,2110
1758.92,2079
1760.29,2058
1761.66,2072
1763.03,2019
1764.41,2064
1765.78,2030
1767.14,2011
1768.51,1963
1769.88,1959
1771.24,1986
1772.61,1969
1773.97,1996
1775.34,1967
1776.7,1929
1778.06,1931
1779.42,1927
1780.78,1899
1782.13,1912
1783.49,1889
1784.85,1906
1786.2,1841
1787.56,1839
1788.91,1858
1790.26,1862
1791.61,1862
1792.96,1860
1794.31,1822
1795.66,1816
1797,1809
1798.35,1825
1799.69,1805
1801.04,1791
1802.38,1788
1803.72,1769
1805.06,1748
1806.4,1742
1807.74,1746
1809.08,1750
1810.42,1725
1811.75,1748
1813.09,1742
1814.42,1742
1815.76,1713
1817.09,1704
1818.42,1724
1819.75,1704
1821.08,1699
1822.4,1708
1823.73,1710
1825.06,1712
1826.38,1697
1827.71,1657
1829.03,1695
1830.35,1660
1831.67,1649
1832.99,1629
1834.31,1635
1835.63,1619
1836.95,1624
1838.26,1619
1839.58,1623
1840.89,1623
1842.2,1619
1843.52,1598
1844.83,1598
1846.14,1596
1847.45,1642
1848.75,1594
1850.06,1577
1851.37,1562
1852.67,1594
1853.98,1598
1855.28,1568
1856.58,1554
1857.88,1602
1859.18,1573
1860.48,1537
1861.78,1537
1863.08,1542
1864.37,1504
1865.67,1546
1866.96,1499
1868.26,1486
1869.55,1493
1870.84,1508
1872.13,1524
1873.42,1517
1874.71,1520
1875.99,1491
1877.28,1482
1878.56,1470
1879.85,1480
1881.13,1492
1882.41,1451
1883.69,1450
1884.97,1458
1886.25,1447
1887.53,1415
1888.81,1447
1890.09,1421
1891.36,1426
1892.63,1408
1893.91,1389
1895.18,1393
1896.45,1373
1897.72,1397
1898.99,1371
1900.26,1364
1901.53,1366
1902.79,1378
1904.06,1365
1905.32,1354
1906.58,1319
1907.85,1330
1909.11,1317
1910.37,1324
1911.63,1329
1912.89,1292
1914.14,1321
1915.4,1321
1916.65,1267
1917.91,1275
1919.16,1258
1920.41,1215
1921.67,1242
1922.92,1234
1924.17,1220
1925.41,1196
1926.66,1206
1927.91,1205
1929.15,1206
1930.4,1170
1931.64,1190
1932.88,1174
1934.12,1174
1935.36,1177
1936.6,1145
1937.84,1141
1939.08,1158
1940.32,1122
1941.55,1160
1942.79,1148
1944.02,1117
1945.25,1099
1946.48,1106
1947.71,1077
1948.94,1117
1950.17,1073
1951.4,1102
1952.62,1090
1953.85,1063
1955.07,1035
1956.3,1046
1957.52,1005
1958.74,1041
1959.96,1031
1961.18,1016
1962.4,987
1963.62,980
1964.83,992
1966.05,998
1967.26,950
1968.48,939
1969.69,957
1970.9,926
1972.11,938
1973.32,939
1974.53,919
1975.74,896
1976.94,894
1978.15,898
1979.35,906
1980.56,904
1981.76,873
1982.96,864
1984.16,871
1985.36,875
1986.56,858
1987.76,862
1988.95,837
1990.15,825
1991.34,819
1992.54,805
1993.73,808
1994.92,813
1996.11,818
1997.3,797
1998.49,759
1999.68,786