ENLIGHTEN Version,1.7.2
Measurement ID,20190905-083640-923469-WP-00340
Serial Number,WP-00340
Label,08:36:40 WP-00340
Integration Time,200
Timestamp,2019-09-05 08:36:40.923469
Note,
Temperature,10.010854111966182
CCD C0,801.7174072265625
CCD C1,0.14122000336647034
CCD C2,-5.609700110653648e-06
CCD C3,-8.541699791919655e-09
CCD Offset,0
CCD Gain,1.9
Laser Wavelength,785
Laser Enable,True
Laser Power,100
Laser Temperature,0
Pixel Count,1024

Pixel,Wavelength,Wavenumber,Processed
0,801.72,265.63,447.00
1,801.86,267.83,569.00
2,802.00,270.02,722.00
3,802.14,272.22,932.00
4,802.28,274.41,1183.00
5,802.42,276.60,1532.00
6,802.56,278.80,1986.00
7,802.71,280.99,2492.00
8,802.85,283.18,3219.00
9,802.99,285.37,3917.00
10,803.13,287.55,4762.00
11,803.27,289.74,5646.00
12,803.41,291.93,6525.00
13,803.55,294.11,7414.00
14,803.69,296.30,8153.00
15,803.83,298.48,8658.00
16,803.98,300.66,9208.00
17,804.12,302.84,9715.00
18,804.26,305.02,9953.00
19,804.40,307.20,10094.00
20,804.54,309.38,10154.00
21,804.68,311.56,10274.00
22,804.82,313.74,10274.00
23,804.96,315.91,10337.00
24,805.10,318.09,10302.00
25,805.24,320.26,10435.00
26,805.39,322.43,10512.00
27,805.53,324.61,10529.00
28,805.67,326.78,10529.00
29,805.81,328.95,10623.00
30,805.95,331.12,10718.00
31,806.09,333.28,10811.00
32,806.23,335.45,10801.00
33,806.37,337.62,10883.00
34,806.51,339.78,10960.00
35,806.65,341.95,10969.00
36,806.79,344.11,11134.00
37,806.93,346.27,11038.00
38,807.08,348.43,11140.00
39,807.22,350.59,11144.00
40,807.36,352.75,11129.00
41,807.50,354.91,11243.00
42,807.64,357.07,11206.00
43,807.78,359.23,11169.00
44,807.92,361.38,11245.00
45,808.06,363.54,11158.00
46,808.20,365.69,11123.00
47,808.34,367.84,11192.00
48,808.48,370.00,11211.00
49,808.62,372.15,11222.00
50,808.76,374.30,11246.00
51,808.90,376.45,11336.00
52,809.04,378.59,11284.00
53,809.19,380.74,11292.00
54,809.33,382.89,11549.00
55,809.47,385.03,11450.00
56,809.61,387.18,11454.00
57,809.75,389.32,11547.00
58,809.89,391.46,11620.00
59,810.03,393.60,11620.00
60,810.17,395.74,11806.00
61,810.31,397.88,11802.00
62,810.45,400.02,11853.00
63,810.59,402.16,12004.00
64,810.73,404.29,12050.00
65,810.87,406.43,12034.00
66,811.01,408.57,12261.00
67,811.15,410.70,12261.00
68,811.29,412.83,12559.00
69,811.43,414.96,12713.00
70,811.57,417.09,12805.00
71,811.71,419.22,13044.00
72,811.85,421.35,13199.00
73,811.99,423.48,13392.00
74,812.13,425.61,13674.00
75,812.27,427.73,13837.00
76,812.41,429.86,14024.00
77,812.55,431.98,14238.00
78,812.69,434.11,14517.00
79,812.83,436.23,14903.00
80,812.97,438.35,15034.00
81,813.11,440.47,15327.00
82,813.26,442.59,15360.00
83,813.40,444.71,15607.00
84,813.54,446.82,15616.00
85,813.68,448.94,15426.00
86,813.82,451.05,15289.00
87,813.96,453.17,14965.00
88,814.10,455.28,14686.00
89,814.24,457.39,14331.00
90,814.38,459.51,14121.00
91,814.52,461.62,13644.00
92,814.66,463.73,13316.00
93,814.80,465.83,13125.00
94,814.94,467.94,12805.00
95,815.08,470.05,12523.00
96,815.22,472.15,12407.00
97,815.36,474.26,12316.00
98,815.50,476.36,12104.00
99,815.63,478.47,11886.00
100,815.77,480.57,11838.00
101,815.91,482.67,11894.00
102,816.05,484.77,11805.00
103,816.19,486.87,11580.00
104,816.33,488.97,11614.00
105,816.47,491.06,11669.00
106,816.61,493.16,11608.00
107,816.75,495.25,11604.00
108,816.89,497.35,11612.00
109,817.03,499.44,11697.00
110,817.17,501.53,11495.00
111,817.31,503.62,11539.00
112,817.45,505.71,11551.00
113,817.59,507.80,11568.00
114,817.73,509.89,11624.00
115,817.87,511.98,11532.00
116,818.01,514.07,11635.00
117,818.15,516.15,11585.00
118,818.29,518.24,11622.00
119,818.43,520.32,11613.00
120,818.57,522.40,11529.00
121,818.71,524.48,11530.00
122,818.85,526.56,11572.00
123,818.99,528.64,11655.00
124,819.13,530.72,11591.00
125,819.27,532.80,11595.00
126,819.40,534.88,11618.00
127,819.54,536.95,11560.00
128,819.68,539.03,11726.00
129,819.82,541.10,11648.00
130,819.96,543.17,11663.00
131,820.10,545.24,11686.00
132,820.24,547.32,11821.00
133,820.38,549.39,11816.00
134,820.52,551.45,11794.00
135,820.66,553.52,11947.00
136,820.80,555.59,12001.00
137,820.94,557.66,11986.00
138,821.08,559.72,12078.00
139,821.22,561.78,12224.00
140,821.35,563.85,12229.00
141,821.49,565.91,12263.00
142,821.63,567.97,12493.00
143,821.77,570.03,12513.00
144,821.91,572.09,12660.00
145,822.05,574.15,12683.00
146,822.19,576.21,12877.00
147,822.33,578.26,13012.00
148,822.47,580.32,13120.00
149,822.61,582.37,13472.00
150,822.75,584.42,13502.00
151,822.88,586.48,13758.00
152,823.02,588.53,13868.00
153,823.16,590.58,14114.00
154,823.30,592.63,14368.00
155,823.44,594.68,14484.00
156,823.58,596.72,14797.00
157,823.72,598.77,15016.00
158,823.86,600.82,15259.00
159,824.00,602.86,15323.00
160,824.13,604.90,15586.00
161,824.27,606.95,15658.00
162,824.41,608.99,15710.00
163,824.55,611.03,15709.00
164,824.69,613.07,15493.00
165,824.83,615.11,15342.00
166,824.97,617.15,15169.00
167,825.10,619.18,14819.00
168,825.24,621.22,14659.00
169,825.38,623.25,14315.00
170,825.52,625.29,14153.00
171,825.66,627.32,13853.00
172,825.80,629.35,13705.00
173,825.94,631.38,13636.00
174,826.07,633.41,13495.00
175,826.21,635.44,13290.00
176,826.35,637.47,13084.00
177,826.49,639.50,12801.00
178,826.63,641.52,12548.00
179,826.77,643.55,12414.00
180,826.91,645.57,12215.00
181,827.04,647.60,12187.00
182,827.18,649.62,12023.00
183,827.32,651.64,12033.00
184,827.46,653.66,12012.00
185,827.60,655.68,11887.00
186,827.74,657.70,11863.00
187,827.87,659.71,11878.00
188,828.01,661.73,11811.00
189,828.15,663.75,11762.00
190,828.29,665.76,11826.00
191,828.43,667.77,11660.00
192,828.56,669.79,11722.00
193,828.70,671.80,11623.00
194,828.84,673.81,11751.00
195,828.98,675.82,11682.00
196,829.12,677.83,11802.00
197,829.25,679.83,11676.00
198,829.39,681.84,11535.00
199,829.53,683.84,11606.00
200,829.67,685.85,11441.00
201,829.81,687.85,11605.00
202,829.94,689.86,11503.00
203,830.08,691.86,11506.00
204,830.22,693.86,11583.00
205,830.36,695.86,11558.00
206,830.50,697.86,11499.00
207,830.63,699.85,11516.00
208,830.77,701.85,11507.00
209,830.91,703.85,11574.00
210,831.05,705.84,11599.00
211,831.18,707.84,11574.00
212,831.32,709.83,11525.00
213,831.46,711.82,11574.00
214,831.60,713.81,11652.00
215,831.74,715.80,11667.00
216,831.87,717.79,11573.00
217,832.01,719.78,11568.00
218,832.15,721.76,11547.00
219,832.29,723.75,11596.00
220,832.42,725.74,11570.00
221,832.56,727.72,11555.00
222,832.70,729.70,11510.00
223,832.84,731.68,11365.00
224,832.97,733.67,11463.00
225,833.11,735.65,11506.00
226,833.25,737.62,11414.00
227,833.39,739.60,11456.00
228,833.52,741.58,11420.00
229,833.66,743.56,11435.00
230,833.80,745.53,11452.00
231,833.93,747.51,11582.00
232,834.07,749.48,11638.00
233,834.21,751.45,11683.00
234,834.35,753.42,11634.00
235,834.48,755.39,11561.00
236,834.62,757.36,11408.00
237,834.76,759.33,11461.00
238,834.89,761.30,11260.00
239,835.03,763.26,11319.00
240,835.17,765.23,11266.00
241,835.31,767.19,11241.00
242,835.44,769.16,11273.00
243,835.58,771.12,11332.00
244,835.72,773.08,11304.00
245,835.85,775.04,11235.00
246,835.99,777.00,11364.00
247,836.13,778.96,11359.00
248,836.26,780.92,11583.00
249,836.40,782.87,11646.00
250,836.54,784.83,11799.00
251,836.68,786.78,11790.00
252,836.81,788.74,11776.00
253,836.95,790.69,11728.00
254,837.09,792.64,11465.00
255,837.22,794.59,11549.00
256,837.36,796.54,11433.00
257,837.50,798.49,11315.00
258,837.63,800.44,11249.00
259,837.77,802.38,11303.00
260,837.91,804.33,11357.00
261,838.04,806.27,11412.00
262,838.18,808.22,11374.00
263,838.31,810.16,11441.00
264,838.45,812.10,11399.00
265,838.59,814.04,11469.00
266,838.72,815.98,11563.00
267,838.86,817.92,11661.00
268,839.00,819.86,11709.00
269,839.13,821.80,11819.00
270,839.27,823.73,11880.00
271,839.41,825.67,12019.00
272,839.54,827.60,11920.00
273,839.68,829.53,11941.00
274,839.81,831.47,11994.00
275,839.95,833.40,12064.00
276,840.09,835.33,12132.00
277,840.22,837.26,12053.00
278,840.36,839.18,12095.00
279,840.50,841.11,12008.00
280,840.63,843.04,12059.00
281,840.77,844.96,11939.00
282,840.90,846.89,11886.00
283,841.04,848.81,11781.00
284,841.18,850.73,11705.00
285,841.31,852.65,11744.00
286,841.45,854.57,11652.00
287,841.58,856.49,11532.00
288,841.72,858.41,11525.00
289,841.86,860.33,11500.00
290,841.99,862.24,11511.00
291,842.13,864.16,11478.00
292,842.26,866.07,11488.00
293,842.40,867.99,11437.00
294,842.53,869.90,11450.00
295,842.67,871.81,11469.00
296,842.81,873.72,11450.00
297,842.94,875.63,11513.00
298,843.08,877.54,11502.00
299,843.21,879.44,11589.00
300,843.35,881.35,11560.00
301,843.48,883.26,11536.00
302,843.62,885.16,11548.00
303,843.75,887.06,11500.00
304,843.89,888.97,11389.00
305,844.03,890.87,11549.00
306,844.16,892.77,11465.00
307,844.30,894.67,11387.00
308,844.43,896.57,11368.00
309,844.57,898.46,11298.00
310,844.70,900.36,11214.00
311,844.84,902.26,11174.00
312,844.97,904.15,11166.00
313,845.11,906.04,11186.00
314,845.24,907.94,10996.00
315,845.38,909.83,11058.00
316,845.51,911.72,11178.00
317,845.65,913.61,11003.00
318,845.78,915.50,11064.00
319,845.92,917.38,11216.00
320,846.05,919.27,11176.00
321,846.19,921.16,11142.00
322,846.32,923.04,11154.00
323,846.46,924.92,11203.00
324,846.59,926.81,11062.00
325,846.73,928.69,11094.00
326,846.86,930.57,11102.00
327,847.00,932.45,11135.00
328,847.13,934.33,11085.00
329,847.27,936.20,11157.00
330,847.40,938.08,11072.00
331,847.54,939.96,11119.00
332,847.67,941.83,11168.00
333,847.81,943.71,11239.00
334,847.94,945.58,11247.00
335,848.08,947.45,11246.00
336,848.21,949.32,11153.00
337,848.34,951.19,11241.00
338,848.48,953.06,11287.00
339,848.61,954.93,11147.00
340,848.75,956.79,11206.00
341,848.88,958.66,11091.00
342,849.02,960.52,10990.00
343,849.15,962.39,11014.00
344,849.29,964.25,10797.00
345,849.42,966.11,10927.00
346,849.55,967.97,10931.00
347,849.69,969.83,10885.00
348,849.82,971.69,10906.00
349,849.96,973.55,10818.00
350,850.09,975.41,10927.00
351,850.23,977.26,10862.00
352,850.36,979.12,10834.00
353,850.49,980.97,10859.00
354,850.63,982.82,10878.00
355,850.76,984.68,10903.00
356,850.90,986.53,10926.00
357,851.03,988.38,10879.00
358,851.16,990.23,10965.00
359,851.30,992.07,10992.00
360,851.43,993.92,11125.00
361,851.56,995.77,11136.00
362,851.70,997.61,11300.00
363,851.83,999.46,11391.00
364,851.97,1001.30,11589.00
365,852.10,1003.14,11576.00
366,852.23,1004.98,11487.00
367,852.37,1006.82,11553.00
368,852.50,1008.66,11344.00
369,852.63,1010.50,11264.00
370,852.77,1012.34,11245.00
371,852.90,1014.17,11220.00
372,853.04,1016.01,11292.00
373,853.17,1017.84,11304.00
374,853.30,1019.68,11349.00
375,853.44,1021.51,11334.00
376,853.57,1023.34,11275.00
377,853.70,1025.17,11334.00
378,853.84,1027.00,11395.00
379,853.97,1028.83,11437.00
380,854.10,1030.65,11386.00
381,854.24,1032.48,11515.00
382,854.37,1034.31,11511.00
383,854.50,1036.13,11667.00
384,854.64,1037.95,11701.00
385,854.77,1039.77,11717.00
386,854.90,1041.60,11732.00
387,855.03,1043.42,12053.00
388,855.17,1045.24,12172.00
389,855.30,1047.05,12541.00
390,855.43,1048.87,12951.00
391,855.57,1050.69,13840.00
392,855.70,1052.50,15348.00
393,855.83,1054.32,17553.00
394,855.96,1056.13,20643.00
395,856.10,1057.94,23714.00
396,856.23,1059.75,26028.00
397,856.36,1061.56,26993.00
398,856.50,1063.37,26279.00
399,856.63,1065.18,24127.00
400,856.76,1066.99,21247.00
401,856.89,1068.80,18496.00
402,857.03,1070.60,16486.00
403,857.16,1072.41,15386.00
404,857.29,1074.21,14821.00
405,857.42,1076.01,14599.00
406,857.56,1077.81,14580.00
407,857.69,1079.61,14525.00
408,857.82,1081.41,14469.00
409,857.95,1083.21,14494.00
410,858.09,1085.01,14361.00
411,858.22,1086.81,14370.00
412,858.35,1088.60,14263.00
413,858.48,1090.40,14164.00
414,858.61,1092.19,14081.00
415,858.75,1093.98,14020.00
416,858.88,1095.77,13965.00
417,859.01,1097.56,13737.00
418,859.14,1099.35,13676.00
419,859.28,1101.14,13621.00
420,859.41,1102.93,13733.00
421,859.54,1104.72,13891.00
422,859.67,1106.50,13851.00
423,859.80,1108.29,14064.00
424,859.94,1110.07,14366.00
425,860.07,1111.85,14515.00
426,860.20,1113.63,14877.00
427,860.33,1115.41,15452.00
428,860.46,1117.19,16136.00
429,860.59,1118.97,17211.00
430,860.73,1120.75,19111.00
431,860.86,1122.53,21784.00
432,860.99,1124.30,24805.00
433,861.12,1126.08,27686.00
434,861.25,1127.85,29314.00
435,861.38,1129.62,29297.00
436,861.51,1131.39,27529.00
437,861.65,1133.17,24709.00
438,861.78,1134.93,21457.00
439,861.91,1136.70,18677.00
440,862.04,1138.47,16899.00
441,862.17,1140.24,15876.00
442,862.30,1142.00,15272.00
443,862.43,1143.77,14979.00
444,862.57,1145.53,14822.00
445,862.70,1147.29,14838.00
446,862.83,1149.06,14627.00
447,862.96,1150.82,14831.00
448,863.09,1152.58,14792.00
449,863.22,1154.34,14962.00
450,863.35,1156.09,15086.00
451,863.48,1157.85,15227.00
452,863.61,1159.61,15471.00
453,863.74,1161.36,15888.00
454,863.88,1163.11,16469.00
455,864.01,1164.87,17119.00
456,864.14,1166.62,17770.00
457,864.27,1168.37,17966.00
458,864.40,1170.12,18061.00
459,864.53,1171.87,17819.00
460,864.66,1173.62,17310.00
461,864.79,1175.36,16954.00
462,864.92,1177.11,16667.00
463,865.05,1178.85,16807.00
464,865.18,1180.60,16876.00
465,865.31,1182.34,17022.00
466,865.44,1184.08,17196.00
467,865.57,1185.82,17192.00
468,865.70,1187.56,17168.00
469,865.83,1189.30,17026.00
470,865.96,1191.04,16938.00
471,866.10,1192.78,16677.00
472,866.23,1194.51,16750.00
473,866.36,1196.25,16729.00
474,866.49,1197.98,16647.00
475,866.62,1199.71,16748.00
476,866.75,1201.45,16798.00
477,866.88,1203.18,16790.00
478,867.01,1204.91,16946.00
479,867.14,1206.64,16976.00
480,867.27,1208.36,17009.00
481,867.40,1210.09,17096.00
482,867.53,1211.82,16958.00
483,867.66,1213.54,17005.00
484,867.79,1215.27,17000.00
485,867.92,1216.99,17104.00
486,868.04,1218.71,17108.00
487,868.17,1220.43,17135.00
488,868.30,1222.15,17290.00
489,868.43,1223.87,17288.00
490,868.56,1225.59,17403.00
491,868.69,1227.31,17468.00
492,868.82,1229.02,17474.00
493,868.95,1230.74,17525.00
494,869.08,1232.45,17627.00
495,869.21,1234.16,17597.00
496,869.34,1235.88,17628.00
497,869.47,1237.59,17658.00
498,869.60,1239.30,17821.00
499,869.73,1241.01,17890.00
500,869.86,1242.71,18041.00
501,869.99,1244.42,18103.00
502,870.12,1246.13,18262.00
503,870.24,1247.83,18326.00
504,870.37,1249.54,18489.00
505,870.50,1251.24,18723.00
506,870.63,1252.94,18658.00
507,870.76,1254.64,18966.00
508,870.89,1256.34,18873.00
509,871.02,1258.04,19014.00
510,871.15,1259.74,19288.00
511,871.28,1261.44,19419.00
512,871.41,1263.13,19678.00
513,871.53,1264.83,19630.00
514,871.66,1266.52,19973.00
515,871.79,1268.22,20078.00
516,871.92,1269.91,20321.00
517,872.05,1271.60,20325.00
518,872.18,1273.29,20613.00
519,872.31,1274.98,20690.00
520,872.43,1276.67,20781.00
521,872.56,1278.35,21148.00
522,872.69,1280.04,21590.00
523,872.82,1281.73,22120.00
524,872.95,1283.41,22946.00
525,873.08,1285.09,24592.00
526,873.20,1286.78,27362.00
527,873.33,1288.46,31606.00
528,873.46,1290.14,36756.00
529,873.59,1291.82,41315.00
530,873.72,1293.49,42960.00
531,873.84,1295.17,44605.00
532,873.97,1296.85,42498.00
533,874.10,1298.52,39065.00
534,874.23,1300.20,34820.00
535,874.36,1301.87,31367.00
536,874.48,1303.54,29049.00
537,874.61,1305.21,27860.00
538,874.74,1306.88,27413.00
539,874.87,1308.55,27086.00
540,875.00,1310.22,26922.00
541,875.12,1311.89,26962.00
542,875.25,1313.56,27076.00
543,875.38,1315.22,27030.00
544,875.51,1316.89,27129.00
545,875.63,1318.55,27339.00
546,875.76,1320.21,27618.00
547,875.89,1321.87,28002.00
548,876.02,1323.53,28149.00
549,876.14,1325.19,28356.00
550,876.27,1326.85,28725.00
551,876.40,1328.51,28982.00
552,876.52,1330.16,29230.00
553,876.65,1331.82,29494.00
554,876.78,1333.47,29806.00
555,876.91,1335.13,30097.00
556,877.03,1336.78,30331.00
557,877.16,1338.43,30795.00
558,877.29,1340.08,31039.00
559,877.41,1341.73,31384.00
560,877.54,1343.38,31853.00
561,877.67,1345.03,32112.00
562,877.80,1346.67,32209.00
563,877.92,1348.32,32495.00
564,878.05,1349.96,32705.00
565,878.18,1351.61,32789.00
566,878.30,1353.25,33078.00
567,878.43,1354.89,33202.00
568,878.56,1356.53,33430.00
569,878.68,1358.17,33700.00
570,878.81,1359.81,34172.00
571,878.93,1361.45,34530.00
572,879.06,1363.08,34653.00
573,879.19,1364.72,35001.00
574,879.31,1366.35,35203.00
575,879.44,1367.99,35268.00
576,879.57,1369.62,35593.00
577,879.69,1371.25,35291.00
578,879.82,1372.88,35262.00
579,879.95,1374.51,34952.00
580,880.07,1376.14,34771.00
581,880.20,1377.77,34583.00
582,880.32,1379.39,34484.00
583,880.45,1381.02,34271.00
584,880.58,1382.64,34213.00
585,880.70,1384.27,34002.00
586,880.83,1385.89,34265.00
587,880.95,1387.51,33997.00
588,881.08,1389.13,33948.00
589,881.20,1390.75,33757.00
590,881.33,1392.37,33647.00
591,881.46,1393.99,33797.00
592,881.58,1395.60,33531.00
593,881.71,1397.22,33641.00
594,881.83,1398.83,33630.00
595,881.96,1400.45,33525.00
596,882.08,1402.06,33647.00
597,882.21,1403.67,33725.00
598,882.33,1405.28,33849.00
599,882.46,1406.89,34402.00
600,882.58,1408.50,35307.00
601,882.71,1410.11,36512.00
602,882.84,1411.71,37959.00
603,882.96,1413.32,39268.00
604,883.09,1414.92,39930.00
605,883.21,1416.53,40232.00
606,883.34,1418.13,39734.00
607,883.46,1419.73,38975.00
608,883.59,1421.33,37651.00
609,883.71,1422.93,36702.00
610,883.84,1424.53,36293.00
611,883.96,1426.13,36299.00
612,884.09,1427.72,36947.00
613,884.21,1429.32,38065.00
614,884.33,1430.91,39498.00
615,884.46,1432.51,41594.00
616,884.58,1434.10,43952.00
617,884.71,1435.69,46354.00
618,884.83,1437.28,48019.00
619,884.96,1438.87,48923.00
620,885.08,1440.46,48670.00
621,885.21,1442.05,47557.00
622,885.33,1443.64,45632.00
623,885.45,1445.22,43520.00
624,885.58,1446.81,41695.00
625,885.70,1448.39,40210.00
626,885.83,1449.97,39348.00
627,885.95,1451.55,38814.00
628,886.08,1453.14,38526.00
629,886.20,1454.72,38433.00
630,886.32,1456.29,38353.00
631,886.45,1457.87,38447.00
632,886.57,1459.45,38553.00
633,886.70,1461.02,38311.00
634,886.82,1462.60,37978.00
635,886.94,1464.17,37151.00
636,887.07,1465.75,36141.00
637,887.19,1467.32,35235.00
638,887.31,1468.89,33851.00
639,887.44,1470.46,32608.00
640,887.56,1472.03,31418.00
641,887.68,1473.59,30443.00
642,887.81,1475.16,29348.00
643,887.93,1476.73,28464.00
644,888.06,1478.29,27764.00
645,888.18,1479.86,27145.00
646,888.30,1481.42,26817.00
647,888.43,1482.98,26280.00
648,888.55,1484.54,25890.00
649,888.67,1486.10,25622.00
650,888.79,1487.66,25338.00
651,888.92,1489.22,25054.00
652,889.04,1490.77,24799.00
653,889.16,1492.33,24601.00
654,889.29,1493.88,24378.00
655,889.41,1495.44,24268.00
656,889.53,1496.99,24067.00
657,889.66,1498.54,23945.00
658,889.78,1500.09,23941.00
659,889.90,1501.64,23728.00
660,890.02,1503.19,23656.00
661,890.15,1504.74,23342.00
662,890.27,1506.29,23313.00
663,890.39,1507.83,23308.00
664,890.51,1509.38,23178.00
665,890.64,1510.92,23001.00
666,890.76,1512.47,22960.00
667,890.88,1514.01,22904.00
668,891.00,1515.55,22767.00
669,891.13,1517.09,22826.00
670,891.25,1518.63,22581.00
671,891.37,1520.16,22552.00
672,891.49,1521.70,22547.00
673,891.61,1523.24,22472.00
674,891.74,1524.77,22339.00
675,891.86,1526.31,22459.00
676,891.98,1527.84,22252.00
677,892.10,1529.37,22172.00
678,892.22,1530.90,22208.00
679,892.35,1532.43,22027.00
680,892.47,1533.96,22027.00
681,892.59,1535.49,22109.00
682,892.71,1537.02,22035.00
683,892.83,1538.54,21833.00
684,892.95,1540.07,21799.00
685,893.08,1541.59,21763.00
686,893.20,1543.11,21742.00
687,893.32,1544.64,21706.00
688,893.44,1546.16,21548.00
689,893.56,1547.68,21327.00
690,893.68,1549.20,21546.00
691,893.80,1550.71,21451.00
692,893.92,1552.23,21291.00
693,894.05,1553.75,21274.00
694,894.17,1555.26,21268.00
695,894.29,1556.78,21128.00
696,894.41,1558.29,21095.00
697,894.53,1559.80,21076.00
698,894.65,1561.31,21021.00
699,894.77,1562.82,20808.00
700,894.89,1564.33,20868.00
701,895.01,1565.84,20724.00
702,895.13,1567.35,20820.00
703,895.26,1568.85,20756.00
704,895.38,1570.36,20614.00
705,895.50,1571.86,20621.00
706,895.62,1573.36,20515.00
707,895.74,1574.87,20406.00
708,895.86,1576.37,20340.00
709,895.98,1577.87,20247.00
710,896.10,1579.37,20197.00
711,896.22,1580.87,20011.00
712,896.34,1582.36,19994.00
713,896.46,1583.86,19866.00
714,896.58,1585.35,19874.00
715,896.70,1586.85,19773.00
716,896.82,1588.34,19756.00
717,896.94,1589.83,19608.00
718,897.06,1591.32,19611.00
719,897.18,1592.81,19538.00
720,897.30,1594.30,19335.00
721,897.42,1595.79,19362.00
722,897.54,1597.28,19307.00
723,897.66,1598.76,19261.00
724,897.78,1600.25,19357.00
725,897.90,1601.73,19305.00
726,898.02,1603.22,19311.00
727,898.14,1604.70,19427.00
728,898.26,1606.18,19301.00
729,898.38,1607.66,19417.00
730,898.50,1609.14,19478.00
731,898.62,1610.62,19383.00
732,898.73,1612.10,19432.00
733,898.85,1613.57,19331.00
734,898.97,1615.05,19081.00
735,899.09,1616.52,18888.00
736,899.21,1617.99,18791.00
737,899.33,1619.47,18656.00
738,899.45,1620.94,18510.00
739,899.57,1622.41,18403.00
740,899.69,1623.88,18227.00
741,899.81,1625.35,18104.00
742,899.92,1626.81,18162.00
743,900.04,1628.28,18158.00
744,900.16,1629.74,17996.00
745,900.28,1631.21,17911.00
746,900.40,1632.67,17885.00
747,900.52,1634.13,17762.00
748,900.64,1635.60,17733.00
749,900.76,1637.06,17767.00
750,900.87,1638.51,17581.00
751,900.99,1639.97,17596.00
752,901.11,1641.43,17573.00
753,901.23,1642.89,17515.00
754,901.35,1644.34,17392.00
755,901.46,1645.80,17354.00
756,901.58,1647.25,17293.00
757,901.70,1648.70,17260.00
758,901.82,1650.15,17281.00
759,901.94,1651.60,17011.00
760,902.05,1653.05,17051.00
761,902.17,1654.50,16959.00
762,902.29,1655.95,16931.00
763,902.41,1657.40,16963.00
764,902.53,1658.84,16935.00
765,902.64,1660.28,16767.00
766,902.76,1661.73,16771.00
767,902.88,1663.17,16672.00
768,903.00,1664.61,16604.00
769,903.11,1666.05,16617.00
770,903.23,1667.49,16549.00
771,903.35,1668.93,16449.00
772,903.47,1670.37,16424.00
773,903.58,1671.80,16305.00
774,903.70,1673.24,16310.00
775,903.82,1674.67,16119.00
776,903.93,1676.11,16153.00
777,904.05,1677.54,16115.00
778,904.17,1678.97,16156.00
779,904.29,1680.40,16099.00
780,904.40,1681.83,15867.00
781,904.52,1683.26,15862.00
782,904.64,1684.69,15738.00
783,904.75,1686.11,15839.00
784,904.87,1687.54,15686.00
785,904.99,1688.96,15622.00
786,905.10,1690.39,15603.00
787,905.22,1691.81,15582.00
788,905.34,1693.23,15415.00
789,905.45,1694.65,15400.00
790,905.57,1696.07,15306.00
791,905.69,1697.49,15251.00
792,905.80,1698.91,15116.00
793,905.92,1700.32,15112.00
794,906.03,1701.74,15051.00
795,906.15,1703.15,14958.00
796,906.27,1704.57,14895.00
797,906.38,1705.98,14869.00
798,906.50,1707.39,14866.00
799,906.61,1708.80,14779.00
800,906.73,1710.21,14598.00
801,906.85,1711.62,14654.00
802,906.96,1713.03,14679.00
803,907.08,1714.43,14463.00
804,907.19,1715.84,14496.00
805,907.31,1717.24,14467.00
806,907.42,1718.65,14308.00
807,907.54,1720.05,14268.00
808,907.65,1721.45,14323.00
809,907.77,1722.85,14247.00
810,907.89,1724.25,14225.00
811,908.00,1725.65,14098.00
812,908.12,1727.05,14099.00
813,908.23,1728.44,14010.00
814,908.35,1729.84,14026.00
815,908.46,1731.23,13832.00
816,908.58,1732.63,13929.00
817,908.69,1734.02,13910.00
818,908.81,1735.41,13836.00
819,908.92,1736.80,13759.00
820,909.04,1738.19,13661.00
821,909.15,1739.58,13685.00
822,909.27,1740.97,13665.00
823,909.38,1742.35,13609.00
824,909.49,1743.74,13554.00
825,909.61,1745.12,13514.00
826,909.72,1746.51,13465.00
827,909.84,1747.89,13466.00
828,909.95,1749.27,13366.00
829,910.07,1750.65,13408.00
830,910.18,1752.03,13343.00
831,910.30,1753.41,13227.00
832,910.41,1754.79,13251.00
833,910.52,1756.17,13183.00
834,910.64,1757.54,13183.00
835,910.75,1758.92,13187.00
836,910.87,1760.29,13175.00
837,910.98,1761.66,13189.00
838,911.09,1763.03,13118.00
839,911.21,1764.41,13041.00
840,911.32,1765.78,13028.00
841,911.43,1767.14,13037.00
842,911.55,1768.51,13037.00
843,911.66,1769.88,12965.00
844,911.78,1771.24,12885.00
845,911.89,1772.61,12930.00
846,912.00,1773.97,12936.00
847,912.12,1775.34,12829.00
848,912.23,1776.70,12660.00
849,912.34,1778.06,12843.00
850,912.46,1779.42,12778.00
851,912.57,1780.78,12698.00
852,912.68,1782.13,12643.00
853,912.79,1783.49,12646.00
854,912.91,1784.85,12571.00
855,913.02,1786.20,12492.00
856,913.13,1787.56,12380.00
857,913.25,1788.91,12449.00
858,913.36,1790.26,12458.00
859,913.47,1791.61,12384.00
860,913.58,1792.96,12386.00
861,913.70,1794.31,12424.00
862,913.81,1795.66,12417.00
863,913.92,1797.00,12426.00
864,914.03,1798.35,12360.00
865,914.15,1799.69,12360.00
866,914.26,1801.04,12335.00
867,914.37,1802.38,12307.00
868,914.48,1803.72,12311.00
869,914.60,1805.06,12354.00
870,914.71,1806.40,12202.00
871,914.82,1807.74,12378.00
872,914.93,1809.08,12208.00
873,915.04,1810.42,12211.00
874,915.16,1811.75,12211.00
875,915.27,1813.09,12211.00
876,915.38,1814.42,12182.00
877,915.49,1815.76,12169.00
878,915.60,1817.09,12228.00
879,915.71,1818.42,12143.00
880,915.83,1819.75,12106.00
881,915.94,1821.08,12095.00
882,916.05,1822.40,12049.00
883,916.16,1823.73,12072.00
884,916.27,1825.06,12002.00
885,916.38,1826.38,11955.00
886,916.49,1827.71,11965.00
887,916.61,1829.03,11917.00
888,916.72,1830.35,11964.00
889,916.83,1831.67,11822.00
890,916.94,1832.99,11908.00
891,917.05,1834.31,11922.00
892,917.16,1835.63,11837.00
893,917.27,1836.95,11950.00
894,917.38,1838.26,11856.00
895,917.49,1839.58,11859.00
896,917.60,1840.89,11863.00
897,917.71,1842.20,11854.00
898,917.82,1843.52,11810.00
899,917.93,1844.83,11837.00
900,918.04,1846.14,11813.00
901,918.15,1847.45,11706.00
902,918.27,1848.75,11728.00
903,918.38,1850.06,11677.00
904,918.49,1851.37,11701.00
905,918.60,1852.67,11721.00
906,918.71,1853.98,11665.00
907,918.82,1855.28,11696.00
908,918.93,1856.58,11560.00
909,919.04,1857.88,11564.00
910,919.15,1859.18,11538.00
911,919.26,1860.48,11498.00
912,919.36,1861.78,11526.00
913,919.47,1863.08,11443.00
914,919.58,1864.37,11475.00
915,919.69,1865.67,11468.00
916,919.80,1866.96,11361.00
917,919.91,1868.26,11277.00
918,920.02,1869.55,11364.00
919,920.13,1870.84,11275.00
920,920.24,1872.13,11222.00
921,920.35,1873.42,11201.00
922,920.46,1874.71,11209.00
923,920.57,1875.99,11178.00
924,920.68,1877.28,11095.00
925,920.79,1878.56,11020.00
926,920.89,1879.85,11020.00
927,921.00,1881.13,10898.00
928,921.11,1882.41,10903.00
929,921.22,1883.69,10908.00
930,921.33,1884.97,10801.00
931,921.44,1886.25,10842.00
932,921.55,1887.53,10725.00
933,921.66,1888.81,10707.00
934,921.76,1890.09,10545.00
935,921.87,1891.36,10586.00
936,921.98,1892.63,10476.00
937,922.09,1893.91,10423.00
938,922.20,1895.18,10398.00
939,922.30,1896.45,10334.00
940,922.41,1897.72,10290.00
941,922.52,1898.99,10240.00
942,922.63,1900.26,10189.00
943,922.74,1901.53,10157.00
944,922.84,1902.79,10042.00
945,922.95,1904.06,10112.00
946,923.06,1905.32,9983.00
947,923.17,1906.58,9930.00
948,923.28,1907.85,9878.00
949,923.38,1909.11,9770.00
950,923.49,1910.37,9695.00
951,923.60,1911.63,9650.00
952,923.70,1912.89,9682.00
953,923.81,1914.14,9510.00
954,923.92,1915.40,9472.00
955,924.03,1916.65,9365.00
956,924.13,1917.91,9390.00
957,924.24,1919.16,9285.00
958,924.35,1920.41,9259.00
959,924.45,1921.67,9227.00
960,924.56,1922.92,9035.00
961,924.67,1924.17,8990.00
962,924.78,1925.41,8991.00
963,924.88,1926.66,8881.00
964,924.99,1927.91,8807.00
965,925.09,1929.15,8810.00
966,925.20,1930.40,8718.00
967,925.31,1931.64,8633.00
968,925.41,1932.88,8541.00
969,925.52,1934.12,8555.00
970,925.63,1935.36,8468.00
971,925.73,1936.60,8357.00
972,925.84,1937.84,8320.00
973,925.95,1939.08,8270.00
974,926.05,1940.32,8125.00
975,926.16,1941.55,8060.00
976,926.26,1942.79,8060.00
977,926.37,1944.02,8023.00
978,926.47,1945.25,7923.00
979,926.58,1946.48,7876.00
980,926.69,1947.71,7784.00
981,926.79,1948.94,7796.00
982,926.90,1950.17,7714.00
983,927.00,1951.40,7596.00
984,927.11,1952.62,7478.00
985,927.21,1953.85,7545.00
986,927.32,1955.07,7419.00
987,927.42,1956.30,7297.00
988,927.53,1957.52,7274.00
989,927.63,1958.74,7242.00
990,927.74,1959.96,7175.00
991,927.84,1961.18,7102.00
992,927.95,1962.40,7064.00
993,928.05,1963.62,7047.00
994,928.16,1964.83,6913.00
995,928.26,1966.05,6850.00
996,928.37,1967.26,6848.00
997,928.47,1968.48,6811.00
998,928.58,1969.69,6654.00
999,928.68,1970.90,6632.00
1000,928.79,1972.11,6552.00
1001,928.89,1973.32,6561.00
1002,928.99,1974.53,6428.00
1003,929.10,1975.74,6400.00
1004,929.20,1976.94,6310.00
1005,929.31,1978.15,6245.00
1006,929.41,1979.35,6242.00
1007,929.52,1980.56,6109.00
1008,929.62,1981.76,6108.00
1009,929.72,1982.96,6114.00
1010,929.83,1984.16,5992.00
1011,929.93,1985.36,5892.00
1012,930.03,1986.56,5969.00
1013,930.14,1987.76,5857.00
1014,930.24,1988.95,5768.00
1015,930.34,1990.15,5760.00
1016,930.45,1991.34,5683.00
1017,930.55,1992.54,5621.00
1018,930.65,1993.73,5505.00
1019,930.76,1994.92,5540.00
1020,930.86,1996.11,5472.00
1021,930.96,1997.30,5450.00
1022,931.07,1998.49,5401.00
1023,931.17,1999.68,5317.00
