ENLIGHTEN Version,1.7.2
Measurement ID,20190716-203930-747977-WP-00340
Serial Number,WP-00340
Label,Acetone 2mm HDPE
Integration Time,2000
Timestamp,2019-07-16 20:39:30.747977
Note,
Temperature,-99
CCD C0,801.7174072265625
CCD C1,0.14122000336647034
CCD C2,-5.609700110653648e-06
CCD C3,-8.541699791919655e-09
CCD Offset,0
CCD Gain,1.9
Laser Wavelength,785.0
Laser Enable,True
Laser Power,100.0
Laser Temperature,-99
Pixel Count,1024

Wavenumber,Processed
265.63,228.00
267.83,282.00
270.02,344.00
272.22,428.00
274.41,513.00
276.60,683.00
278.80,839.00
280.99,1033.00
283.18,1313.00
285.37,1598.00
287.55,1950.00
289.74,2273.00
291.93,2621.00
294.11,2937.00
296.30,3181.00
298.48,3485.00
300.66,3617.00
302.84,3780.00
305.02,3860.00
307.20,3932.00
309.38,3987.00
311.56,4054.00
313.74,3992.00
315.91,3986.00
318.09,3982.00
320.26,4016.00
322.43,3999.00
324.61,4077.00
326.78,4063.00
328.95,4075.00
331.12,4086.00
333.28,4141.00
335.45,4166.00
337.62,4138.00
339.78,4120.00
341.95,4201.00
344.11,4215.00
346.27,4194.00
348.43,4257.00
350.59,4268.00
352.75,4172.00
354.91,4229.00
357.07,4207.00
359.23,4187.00
361.38,4223.00
363.54,4220.00
365.69,4202.00
367.84,4322.00
370.00,4269.00
372.15,4345.00
374.30,4320.00
376.45,4313.00
378.59,4423.00
380.74,4412.00
382.89,4486.00
385.03,4412.00
387.18,4505.00
389.32,4566.00
391.46,4592.00
393.60,4531.00
395.74,4594.00
397.88,4526.00
400.02,4488.00
402.16,4492.00
404.29,4533.00
406.43,4465.00
408.57,4475.00
410.70,4427.00
412.83,4488.00
414.96,4552.00
417.09,4459.00
419.22,4457.00
421.35,4499.00
423.48,4438.00
425.61,4495.00
427.73,4429.00
429.86,4436.00
431.98,4390.00
434.11,4455.00
436.23,4414.00
438.35,4446.00
440.47,4411.00
442.59,4443.00
444.71,4402.00
446.82,4493.00
448.94,4442.00
451.05,4465.00
453.17,4425.00
455.28,4354.00
457.39,4429.00
459.51,4372.00
461.62,4399.00
463.73,4427.00
465.83,4436.00
467.94,4357.00
470.05,4393.00
472.15,4455.00
474.26,4414.00
476.36,4353.00
478.47,4381.00
480.57,4474.00
482.67,4573.00
484.77,4472.00
486.87,4569.00
488.97,4571.00
491.06,4566.00
493.16,4471.00
495.25,4484.00
497.35,4394.00
499.44,4320.00
501.53,4298.00
503.62,4267.00
505.71,4210.00
507.80,4092.00
509.89,4064.00
511.98,4085.00
514.07,4053.00
516.15,4042.00
518.24,4113.00
520.32,4151.00
522.40,4093.00
524.48,4136.00
526.56,4274.00
528.64,4219.00
530.72,4225.00
532.80,4151.00
534.88,4130.00
536.95,4056.00
539.03,3944.00
541.10,3877.00
543.17,3788.00
545.24,3801.00
547.32,3785.00
549.39,3807.00
551.45,3751.00
553.52,3777.00
555.59,3775.00
557.66,3626.00
559.72,3677.00
561.78,3636.00
563.85,3675.00
565.91,3681.00
567.97,3656.00
570.03,3612.00
572.09,3588.00
574.15,3586.00
576.21,3705.00
578.26,3643.00
580.32,3588.00
582.37,3725.00
584.42,3643.00
586.48,3677.00
588.53,3622.00
590.58,3612.00
592.63,3643.00
594.68,3629.00
596.72,3693.00
598.77,3565.00
600.82,3671.00
602.86,3595.00
604.90,3607.00
606.95,3612.00
608.99,3607.00
611.03,3517.00
613.07,3609.00
615.11,3544.00
617.15,3539.00
619.18,3495.00
621.22,3550.00
623.25,3561.00
625.29,3484.00
627.32,3506.00
629.35,3439.00
631.38,3491.00
633.41,3480.00
635.44,3488.00
637.47,3496.00
639.50,3479.00
641.52,3478.00
643.55,3401.00
645.57,3492.00
647.60,3352.00
649.62,3437.00
651.64,3443.00
653.66,3376.00
655.68,3379.00
657.70,3445.00
659.71,3487.00
661.73,3487.00
663.75,3451.00
665.76,3427.00
667.77,3479.00
669.79,3424.00
671.80,3443.00
673.81,3419.00
675.82,3422.00
677.83,3492.00
679.83,3422.00
681.84,3417.00
683.84,3460.00
685.85,3361.00
687.85,3409.00
689.86,3398.00
691.86,3388.00
693.86,3469.00
695.86,3485.00
697.86,3439.00
699.85,3482.00
701.85,3556.00
703.85,3466.00
705.84,3417.00
707.84,3508.00
709.83,3493.00
711.82,3594.00
713.81,3508.00
715.80,3596.00
717.79,3598.00
719.78,3584.00
721.76,3624.00
723.75,3734.00
725.74,3637.00
727.72,3677.00
729.70,3706.00
731.68,3611.00
733.67,3679.00
735.65,3677.00
737.62,3605.00
739.60,3593.00
741.58,3609.00
743.56,3632.00
745.53,3664.00
747.51,3649.00
749.48,3708.00
751.45,3690.00
753.42,3702.00
755.39,3710.00
757.36,3708.00
759.33,3733.00
761.30,3803.00
763.26,3847.00
765.23,4021.00
767.19,4008.00
769.16,4189.00
771.12,4320.00
773.08,4687.00
775.04,5005.00
777.00,5582.00
778.96,6156.00
780.92,6889.00
782.87,7603.00
784.83,8091.00
786.78,8256.00
788.74,8074.00
790.69,7425.00
792.64,6797.00
794.59,6072.00
796.54,5389.00
798.49,4920.00
800.44,4625.00
802.38,4471.00
804.33,4318.00
806.27,4162.00
808.22,4174.00
810.16,4065.00
812.10,4024.00
814.04,3988.00
815.98,3951.00
817.92,3892.00
819.86,3951.00
821.80,3865.00
823.73,3961.00
825.67,3913.00
827.60,3934.00
829.53,3883.00
831.47,3912.00
833.40,3879.00
835.33,3846.00
837.26,3865.00
839.18,3894.00
841.11,3869.00
843.04,3869.00
844.96,3856.00
846.89,3883.00
848.81,3893.00
850.73,3892.00
852.65,3881.00
854.57,3902.00
856.49,3881.00
858.41,3913.00
860.33,3938.00
862.24,3928.00
864.16,3858.00
866.07,3894.00
867.99,3840.00
869.90,3911.00
871.81,3917.00
873.72,3898.00
875.63,3923.00
877.54,3879.00
879.44,3904.00
881.35,3940.00
883.26,3909.00
885.16,3911.00
887.06,3930.00
888.97,3907.00
890.87,3899.00
892.77,3877.00
894.67,3842.00
896.57,3888.00
898.46,3841.00
900.36,3835.00
902.26,3810.00
904.15,3785.00
906.04,3786.00
907.94,3723.00
909.83,3780.00
911.72,3755.00
913.61,3744.00
915.50,3592.00
917.38,3713.00
919.27,3703.00
921.16,3631.00
923.04,3648.00
924.92,3605.00
926.81,3628.00
928.69,3558.00
930.57,3645.00
932.45,3478.00
934.33,3559.00
936.20,3533.00
938.08,3489.00
939.96,3487.00
941.83,3535.00
943.71,3398.00
945.58,3373.00
947.45,3440.00
949.32,3413.00
951.19,3472.00
953.06,3392.00
954.93,3438.00
956.79,3436.00
958.66,3401.00
960.52,3378.00
962.39,3383.00
964.25,3365.00
966.11,3354.00
967.97,3356.00
969.83,3333.00
971.69,3452.00
973.55,3453.00
975.41,3370.00
977.26,3409.00
979.12,3324.00
980.97,3420.00
982.82,3394.00
984.68,3385.00
986.53,3426.00
988.38,3395.00
990.23,3435.00
992.07,3349.00
993.92,3420.00
995.77,3438.00
997.61,3441.00
999.46,3411.00
1001.30,3435.00
1003.14,3464.00
1004.98,3458.00
1006.82,3502.00
1008.66,3468.00
1010.50,3464.00
1012.34,3558.00
1014.17,3472.00
1016.01,3597.00
1017.84,3496.00
1019.68,3614.00
1021.51,3563.00
1023.34,3582.00
1025.17,3534.00
1027.00,3569.00
1028.83,3680.00
1030.65,3622.00
1032.48,3783.00
1034.31,3734.00
1036.13,3759.00
1037.95,3843.00
1039.77,3851.00
1041.60,3858.00
1043.42,4062.00
1045.24,4193.00
1047.05,4267.00
1048.87,4722.00
1050.69,5267.00
1052.50,6130.00
1054.32,7426.00
1056.13,9255.00
1057.94,11220.00
1059.75,12697.00
1061.56,13310.00
1063.37,12917.00
1065.18,11579.00
1066.99,9833.00
1068.80,8214.00
1070.60,6894.00
1072.41,6103.00
1074.21,5756.00
1076.01,5476.00
1077.81,5296.00
1079.61,5219.00
1081.41,5197.00
1083.21,5192.00
1085.01,5018.00
1086.81,4994.00
1088.60,4843.00
1090.40,4762.00
1092.19,4588.00
1093.98,4516.00
1095.77,4491.00
1097.56,4326.00
1099.35,4260.00
1101.14,4260.00
1102.93,4124.00
1104.72,4193.00
1106.50,4120.00
1108.29,4170.00
1110.07,4196.00
1111.85,4362.00
1113.63,4480.00
1115.41,4723.00
1117.19,5212.00
1118.97,5935.00
1120.75,7078.00
1122.53,8778.00
1124.30,10592.00
1126.08,12340.00
1127.85,13162.00
1129.62,13007.00
1131.39,11807.00
1133.17,10033.00
1134.93,8076.00
1136.70,6418.00
1138.47,5302.00
1140.24,4645.00
1142.00,4255.00
1143.77,4039.00
1145.53,3875.00
1147.29,3736.00
1149.06,3761.00
1150.82,3674.00
1152.58,3641.00
1154.34,3649.00
1156.09,3662.00
1157.85,3725.00
1159.61,3852.00
1161.36,4035.00
1163.11,4294.00
1164.87,4564.00
1166.62,4870.00
1168.37,4929.00
1170.12,4910.00
1171.87,4689.00
1173.62,4451.00
1175.36,4052.00
1177.11,3765.00
1178.85,3608.00
1180.60,3530.00
1182.34,3474.00
1184.08,3506.00
1185.82,3411.00
1187.56,3356.00
1189.30,3384.00
1191.04,3398.00
1192.78,3426.00
1194.51,3377.00
1196.25,3388.00
1197.98,3354.00
1199.71,3436.00
1201.45,3416.00
1203.18,3409.00
1204.91,3392.00
1206.64,3435.00
1208.36,3459.00
1210.09,3464.00
1211.82,3545.00
1213.54,3514.00
1215.27,3662.00
1216.99,3696.00
1218.71,3755.00
1220.43,3795.00
1222.15,3812.00
1223.87,3748.00
1225.59,3748.00
1227.31,3748.00
1229.02,3637.00
1230.74,3654.00
1232.45,3556.00
1234.16,3503.00
1235.88,3506.00
1237.59,3510.00
1239.30,3430.00
1241.01,3423.00
1242.71,3390.00
1244.42,3411.00
1246.13,3403.00
1247.83,3460.00
1249.54,3424.00
1251.24,3452.00
1252.94,3557.00
1254.64,3500.00
1256.34,3685.00
1258.04,3651.00
1259.74,3644.00
1261.44,3738.00
1263.13,3849.00
1264.83,3889.00
1266.52,3993.00
1268.22,3991.00
1269.91,3978.00
1271.60,4088.00
1273.29,4117.00
1274.98,4151.00
1276.67,4190.00
1278.35,4328.00
1280.04,4428.00
1281.73,4728.00
1283.41,5211.00
1285.09,6141.00
1286.78,7621.00
1288.46,10230.00
1290.14,13130.00
1291.82,15930.00
1293.49,16790.00
1295.17,17650.00
1296.85,16284.00
1298.52,13892.00
1300.20,11203.00
1301.87,8897.00
1303.54,7457.00
1305.21,6473.00
1306.88,5894.00
1308.55,5529.00
1310.22,5256.00
1311.89,4971.00
1313.56,4752.00
1315.22,4596.00
1316.89,4417.00
1318.55,4293.00
1320.21,4174.00
1321.87,4111.00
1323.53,3993.00
1325.19,3894.00
1326.85,3829.00
1328.51,3748.00
1330.16,3702.00
1331.82,3658.00
1333.47,3620.00
1335.13,3542.00
1336.78,3563.00
1338.43,3520.00
1340.08,3565.00
1341.73,3546.00
1343.38,3607.00
1345.03,3489.00
1346.67,3576.00
1348.32,3639.00
1349.96,3594.00
1351.61,3599.00
1353.25,3700.00
1354.89,3715.00
1356.53,3731.00
1358.17,3795.00
1359.81,3778.00
1361.45,3925.00
1363.08,4043.00
1364.72,4126.00
1366.35,4248.00
1367.99,4286.00
1369.62,4187.00
1371.25,4244.00
1372.88,4064.00
1374.51,3902.00
1376.14,3793.00
1377.77,3692.00
1379.39,3631.00
1381.02,3487.00
1382.64,3535.00
1384.27,3603.00
1385.89,3553.00
1387.51,3593.00
1389.13,3535.00
1390.75,3525.00
1392.37,3625.00
1393.99,3590.00
1395.60,3630.00
1397.22,3675.00
1398.83,3778.00
1400.45,3837.00
1402.06,3959.00
1403.67,4111.00
1405.28,4340.00
1406.89,4869.00
1408.50,5522.00
1410.11,6417.00
1411.71,7486.00
1413.32,8273.00
1414.92,9091.00
1416.53,9323.00
1418.13,9264.00
1419.73,8783.00
1421.33,8305.00
1422.93,7875.00
1424.53,7828.00
1426.13,7877.00
1427.72,8530.00
1429.32,9235.00
1430.91,10319.00
1432.51,11753.00
1434.10,13370.00
1435.69,14675.00
1437.28,15868.00
1438.87,16347.00
1440.46,16160.00
1442.05,15527.00
1443.64,14425.00
1445.22,13206.00
1446.81,12038.00
1448.39,11172.00
1449.97,10792.00
1451.55,10391.00
1453.14,10379.00
1454.72,10351.00
1456.29,10438.00
1457.87,10514.00
1459.45,10611.00
1461.02,10480.00
1462.60,10389.00
1464.17,10011.00
1465.75,9493.00
1467.32,8808.00
1468.89,8220.00
1470.46,7609.00
1472.03,6824.00
1473.59,6259.00
1475.16,5709.00
1476.73,5378.00
1478.29,4923.00
1479.86,4648.00
1481.42,4383.00
1482.98,4229.00
1484.54,4069.00
1486.10,3928.00
1487.66,3832.00
1489.22,3736.00
1490.77,3662.00
1492.33,3534.00
1493.88,3567.00
1495.44,3451.00
1496.99,3436.00
1498.54,3335.00
1500.09,3383.00
1501.64,3253.00
1503.19,3263.00
1504.74,3217.00
1506.29,3187.00
1507.83,3124.00
1509.38,3118.00
1510.92,3128.00
1512.47,3175.00
1514.01,3141.00
1515.55,3139.00
1517.09,3116.00
1518.63,3032.00
1520.16,3042.00
1521.70,3046.00
1523.24,3150.00
1524.77,3066.00
1526.31,2998.00
1527.84,3085.00
1529.37,2985.00
1530.90,3002.00
1532.43,2976.00
1533.96,3002.00
1535.49,2969.00
1537.02,2928.00
1538.54,2912.00
1540.07,2998.00
1541.59,2894.00
1543.11,2930.00
1544.64,2981.00
1546.16,2926.00
1547.68,2922.00
1549.20,2968.00
1550.71,2884.00
1552.23,2967.00
1553.75,2943.00
1555.26,2966.00
1556.78,2869.00
1558.29,2880.00
1559.80,2865.00
1561.31,2837.00
1562.82,2860.00
1564.33,2823.00
1565.84,2747.00
1567.35,2781.00
1568.85,2776.00
1570.36,2743.00
1571.86,2781.00
1573.36,2698.00
1574.87,2726.00
1576.37,2717.00
1577.87,2743.00
1579.37,2747.00
1580.87,2684.00
1582.36,2686.00
1583.86,2717.00
1585.35,2705.00
1586.85,2692.00
1588.34,2747.00
1589.83,2688.00
1591.32,2619.00
1592.81,2639.00
1594.30,2599.00
1595.79,2634.00
1597.28,2625.00
1598.76,2613.00
1600.25,2589.00
1601.73,2637.00
1603.22,2530.00
1604.70,2548.00
1606.18,2534.00
1607.66,2498.00
1609.14,2553.00
1610.62,2551.00
1612.10,2538.00
1613.57,2541.00
1615.05,2540.00
1616.52,2533.00
1617.99,2467.00
1619.47,2507.00
1620.94,2487.00
1622.41,2471.00
1623.88,2489.00
1625.35,2458.00
1626.81,2444.00
1628.28,2435.00
1629.74,2469.00
1631.21,2467.00
1632.67,2433.00
1634.13,2433.00
1635.60,2496.00
1637.06,2427.00
1638.51,2427.00
1639.97,2486.00
1641.43,2450.00
1642.89,2463.00
1644.34,2435.00
1645.80,2384.00
1647.25,2362.00
1648.70,2398.00
1650.15,2368.00
1651.60,2309.00
1653.05,2362.00
1654.50,2366.00
1655.95,2332.00
1657.40,2281.00
1658.84,2317.00
1660.28,2254.00
1661.73,2325.00
1663.17,2302.00
1664.61,2263.00
1666.05,2289.00
1667.49,2308.00
1668.93,2262.00
1670.37,2312.00
1671.80,2252.00
1673.24,2271.00
1674.67,2239.00
1676.11,2263.00
1677.54,2256.00
1678.97,2250.00
1680.40,2232.00
1681.83,2177.00
1683.26,2247.00
1684.69,2274.00
1686.11,2258.00
1687.54,2272.00
1688.96,2258.00
1690.39,2313.00
1691.81,2271.00
1693.23,2368.00
1694.65,2348.00
1696.07,2395.00
1697.49,2402.00
1698.91,2564.00
1700.32,2677.00
1701.74,2754.00
1703.15,2920.00
1704.57,3095.00
1705.98,3244.00
1707.39,3287.00
1708.80,3407.00
1710.21,3384.00
1711.62,3391.00
1713.03,3253.00
1714.43,3129.00
1715.84,3034.00
1717.24,2954.00
1718.65,2829.00
1720.05,2693.00
1721.45,2653.00
1722.85,2564.00
1724.25,2513.00
1725.65,2414.00
1727.05,2350.00
1728.44,2313.00
1729.84,2258.00
1731.23,2256.00
1732.63,2207.00
1734.02,2186.00
1735.41,2094.00
1736.80,2104.00
1738.19,2132.00
1739.58,2083.00
1740.97,2121.00
1742.35,2106.00
1743.74,2081.00
1745.12,2101.00
1746.51,2083.00
1747.89,2100.00
1749.27,2062.00
1750.65,2087.00
1752.03,2030.00
1753.41,2016.00
1754.79,1963.00
1756.17,1935.00
1757.54,1971.00
1758.92,1946.00
1760.29,1980.00
1761.66,1926.00
1763.03,1935.00
1764.41,1923.00
1765.78,1916.00
1767.14,1887.00
1768.51,1845.00
1769.88,1915.00
1771.24,1914.00
1772.61,1838.00
1773.97,1863.00
1775.34,1893.00
1776.70,1802.00
1778.06,1788.00
1779.42,1800.00
1780.78,1805.00
1782.13,1803.00
1783.49,1819.00
1784.85,1809.00
1786.20,1746.00
1787.56,1714.00
1788.91,1777.00
1790.26,1779.00
1791.61,1827.00
1792.96,1771.00
1794.31,1773.00
1795.66,1782.00
1797.00,1794.00
1798.35,1761.00
1799.69,1780.00
1801.04,1697.00
1802.38,1693.00
1803.72,1726.00
1805.06,1706.00
1806.40,1661.00
1807.74,1669.00
1809.08,1661.00
1810.42,1678.00
1811.75,1691.00
1813.09,1735.00
1814.42,1697.00
1815.76,1604.00
1817.09,1633.00
1818.42,1628.00
1819.75,1634.00
1821.08,1697.00
1822.40,1650.00
1823.73,1633.00
1825.06,1598.00
1826.38,1596.00
1827.71,1621.00
1829.03,1577.00
1830.35,1585.00
1831.67,1614.00
1832.99,1541.00
1834.31,1583.00
1835.63,1598.00
1836.95,1573.00
1838.26,1562.00
1839.58,1543.00
1840.89,1537.00
1842.20,1548.00
1843.52,1535.00
1844.83,1531.00
1846.14,1543.00
1847.45,1549.00
1848.75,1516.00
1850.06,1456.00
1851.37,1482.00
1852.67,1486.00
1853.98,1478.00
1855.28,1512.00
1856.58,1444.00
1857.88,1442.00
1859.18,1453.00
1860.48,1467.00
1861.78,1415.00
1863.08,1419.00
1864.37,1427.00
1865.67,1474.00
1866.96,1463.00
1868.26,1425.00
1869.55,1387.00
1870.84,1391.00
1872.13,1397.00
1873.42,1429.00
1874.71,1418.00
1875.99,1364.00
1877.28,1402.00
1878.56,1416.00
1879.85,1400.00
1881.13,1385.00
1882.41,1341.00
1883.69,1349.00
1884.97,1396.00
1886.25,1329.00
1887.53,1300.00
1888.81,1299.00
1890.09,1294.00
1891.36,1331.00
1892.63,1343.00
1893.91,1316.00
1895.18,1299.00
1896.45,1294.00
1897.72,1328.00
1898.99,1257.00
1900.26,1275.00
1901.53,1271.00
1902.79,1278.00
1904.06,1274.00
1905.32,1271.00
1906.58,1265.00
1907.85,1282.00
1909.11,1233.00
1910.37,1259.00
1911.63,1242.00
1912.89,1272.00
1914.14,1216.00
1915.40,1239.00
1916.65,1284.00
1917.91,1223.00
1919.16,1200.00
1920.41,1223.00
1921.67,1218.00
1922.92,1223.00
1924.17,1242.00
1925.41,1180.00
1926.66,1210.00
1927.91,1213.00
1929.15,1197.00
1930.40,1162.00
1931.64,1197.00
1932.88,1181.00
1934.12,1170.00
1935.36,1220.00
1936.60,1128.00
1937.84,1166.00
1939.08,1087.00
1940.32,1123.00
1941.55,1136.00
1942.79,1124.00
1944.02,1134.00
1945.25,1180.00
1946.48,1154.00
1947.71,1140.00
1948.94,1096.00
1950.17,1132.00
1951.40,1126.00
1952.62,1082.00
1953.85,1091.00
1955.07,1092.00
1956.30,1113.00
1957.52,1109.00
1958.74,1127.00
1959.96,1096.00
1961.18,1094.00
1962.40,1066.00
1963.62,1079.00
1964.83,1123.00
1966.05,1050.00
1967.26,1084.00
1968.48,1071.00
1969.69,1057.00
1970.90,1015.00
1972.11,1078.00
1973.32,1041.00
1974.53,1062.00
1975.74,1040.00
1976.94,1023.00
1978.15,1056.00
1979.35,1024.00
1980.56,1042.00
1981.76,1037.00
1982.96,1039.00
1984.16,1018.00
1985.36,1019.00
1986.56,1050.00
1987.76,985.00
1988.95,971.00
1990.15,953.00
1991.34,988.00
1992.54,1006.00
1993.73,1012.00
1994.92,997.00
1996.11,982.00
1997.30,974.00
1998.49,999.00
1999.68,967.00
