ENLIGHTEN Version,1.7.2
Measurement ID,20190716-203352-180384-WP-00340
Serial Number,WP-00340
Label,Acetone
Integration Time,100
Timestamp,2019-07-16 20:33:52.180384
Note,
Temperature,-99
CCD C0,801.7174072265625
CCD C1,0.14122000336647034
CCD C2,-5.609700110653648e-06
CCD C3,-8.541699791919655e-09
CCD Offset,0
CCD Gain,1.9
Laser Wavelength,785.0
Laser Enable,True
Laser Power,100.0
Laser Temperature,-99
Pixel Count,1024

Wavenumber,Processed
265.63,32.00
267.83,40.80
270.02,57.00
272.22,61.40
274.41,76.40
276.60,106.60
278.80,125.60
280.99,160.80
283.18,200.20
285.37,244.40
287.55,296.60
289.74,349.60
291.93,399.00
294.11,461.40
296.30,500.60
298.48,538.40
300.66,567.00
302.84,585.60
305.02,592.60
307.20,609.40
309.38,607.80
311.56,615.20
313.74,608.80
315.91,602.60
318.09,605.60
320.26,606.20
322.43,604.00
324.61,605.00
326.78,605.40
328.95,608.00
331.12,610.40
333.28,611.60
335.45,615.00
337.62,617.20
339.78,630.40
341.95,634.60
344.11,643.20
346.27,641.80
348.43,654.00
350.59,664.60
352.75,674.00
354.91,695.00
357.07,712.00
359.23,728.20
361.38,753.20
363.54,774.20
365.69,819.00
367.84,867.80
370.00,922.60
372.15,997.40
374.30,1079.40
376.45,1195.40
378.59,1295.60
380.74,1461.80
382.89,1616.60
385.03,1760.80
387.18,1913.00
389.32,1969.80
391.46,1992.20
393.60,1915.80
395.74,1777.60
397.88,1609.60
400.02,1421.20
402.16,1249.00
404.29,1113.00
406.43,999.20
408.57,908.40
410.70,835.00
412.83,772.00
414.96,736.00
417.09,703.60
419.22,677.40
421.35,653.00
423.48,645.20
425.61,622.20
427.73,617.60
429.86,613.60
431.98,594.20
434.11,591.60
436.23,587.00
438.35,585.80
440.47,580.20
442.59,586.00
444.71,569.60
446.82,577.20
448.94,590.40
451.05,579.40
453.17,607.60
455.28,617.20
457.39,633.60
459.51,643.00
461.62,665.00
463.73,684.40
465.83,715.20
467.94,733.80
470.05,788.00
472.15,853.80
474.26,932.40
476.36,1035.20
478.47,1146.80
480.57,1283.80
482.67,1460.20
484.77,1656.80
486.87,1798.20
488.97,1929.60
491.06,1978.80
493.16,1976.00
495.25,1911.20
497.35,1821.20
499.44,1724.40
501.53,1646.40
503.62,1615.20
505.71,1619.20
507.80,1645.20
509.89,1699.60
511.98,1818.40
514.07,1991.40
516.15,2233.20
518.24,2572.20
520.32,3046.20
522.40,3612.00
524.48,4171.00
526.56,4677.20
528.64,4946.00
530.72,4897.20
532.80,4584.60
534.88,4010.00
536.95,3343.80
539.03,2758.20
541.10,2223.60
543.17,1832.40
545.24,1539.60
547.32,1315.00
549.39,1166.80
551.45,1026.80
553.52,935.60
555.59,857.40
557.66,783.00
559.72,723.80
561.78,664.20
563.85,631.80
565.91,584.00
567.97,553.80
570.03,526.40
572.09,500.40
574.15,475.20
576.21,455.00
578.26,436.40
580.32,419.40
582.37,393.00
584.42,376.40
586.48,365.20
588.53,340.40
590.58,327.00
592.63,315.00
594.68,307.60
596.72,298.60
598.77,288.40
600.82,278.40
602.86,268.20
604.90,267.60
606.95,265.40
608.99,255.40
611.03,248.80
613.07,252.20
615.11,243.40
617.15,257.40
619.18,245.60
621.22,248.00
623.25,244.80
625.29,256.00
627.32,263.40
629.35,268.40
631.38,277.00
633.41,286.60
635.44,280.60
637.47,275.00
639.50,251.00
641.52,236.40
643.55,229.60
645.57,222.80
647.60,213.20
649.62,198.40
651.64,211.40
653.66,202.20
655.68,196.00
657.70,193.40
659.71,195.40
661.73,195.00
663.75,194.40
665.76,200.40
667.77,199.00
669.79,194.40
671.80,199.00
673.81,202.80
675.82,206.60
677.83,212.00
679.83,222.80
681.84,228.00
683.84,238.20
685.85,251.00
687.85,277.80
689.86,282.20
691.86,289.60
693.86,288.20
695.86,283.40
697.86,285.40
699.85,291.40
701.85,284.20
703.85,290.60
705.84,298.60
707.84,318.80
709.83,322.00
711.82,335.40
713.81,347.60
715.80,364.20
717.79,410.20
719.78,430.00
721.76,463.60
723.75,498.60
725.74,522.40
727.72,553.40
729.70,574.80
731.68,605.20
733.67,640.00
735.65,684.60
737.62,702.80
739.60,757.40
741.58,809.40
743.56,870.40
745.53,951.40
747.51,1054.20
749.48,1145.40
751.45,1267.80
753.42,1414.40
755.39,1591.20
757.36,1823.40
759.33,2077.80
761.30,2419.20
763.26,2907.60
765.23,3509.00
767.19,4347.40
769.16,5532.80
771.12,7162.60
773.08,9442.40
775.04,12634.20
777.00,16973.60
778.96,22472.80
780.92,28775.80
782.87,34881.00
784.83,39078.00
786.78,40406.40
788.74,38375.00
790.69,33175.80
792.64,26559.40
794.59,19847.20
796.54,14364.20
798.49,10336.80
800.44,7650.40
802.38,6189.80
804.33,4729.20
806.27,3898.20
808.22,3317.60
810.16,2896.00
812.10,2557.40
814.04,2276.00
815.98,2109.00
817.92,1932.20
819.86,1789.00
821.80,1645.00
823.73,1559.60
825.67,1477.60
827.60,1388.80
829.53,1348.80
831.47,1282.00
833.40,1228.20
835.33,1174.60
837.26,1156.80
839.18,1109.80
841.11,1082.80
843.04,1047.80
844.96,1030.20
846.89,997.60
848.81,991.00
850.73,976.20
852.65,975.00
854.57,980.20
856.49,981.40
858.41,973.60
860.33,996.40
862.24,1004.00
864.16,1038.60
866.07,1070.00
867.99,1074.60
869.90,1104.00
871.81,1128.80
873.72,1180.80
875.63,1213.40
877.54,1252.40
879.44,1262.80
881.35,1292.20
883.26,1308.80
885.16,1339.80
887.06,1359.60
888.97,1396.00
890.87,1441.00
892.77,1504.20
894.67,1542.20
896.57,1613.20
898.46,1662.40
900.36,1665.20
902.26,1683.00
904.15,1650.60
906.04,1603.40
907.94,1569.20
909.83,1480.60
911.72,1414.20
913.61,1345.80
915.50,1265.40
917.38,1196.20
919.27,1141.60
921.16,1083.60
923.04,1031.40
924.92,976.40
926.81,923.40
928.69,884.40
930.57,845.00
932.45,826.40
934.33,776.80
936.20,745.60
938.08,719.80
939.96,699.40
941.83,683.00
943.71,655.20
945.58,650.40
947.45,622.20
949.32,620.20
951.19,600.20
953.06,600.60
954.93,578.00
956.79,577.80
958.66,571.80
960.52,565.00
962.39,554.60
964.25,559.80
966.11,553.40
967.97,553.80
969.83,562.60
971.69,563.40
973.55,561.00
975.41,577.40
977.26,597.60
979.12,604.20
980.97,592.00
982.82,599.20
984.68,607.80
986.53,600.60
988.38,568.20
990.23,576.80
992.07,591.80
993.92,617.80
995.77,669.60
997.61,732.40
999.46,793.00
1001.30,810.60
1003.14,794.00
1004.98,748.00
1006.82,671.40
1008.66,600.80
1010.50,577.00
1012.34,555.00
1014.17,530.80
1016.01,549.40
1017.84,571.60
1019.68,591.40
1021.51,607.80
1023.34,652.80
1025.17,676.80
1027.00,722.60
1028.83,752.40
1030.65,794.40
1032.48,821.80
1034.31,851.00
1036.13,884.00
1037.95,926.00
1039.77,986.60
1041.60,1047.40
1043.42,1122.00
1045.24,1234.00
1047.05,1377.80
1048.87,1524.00
1050.69,1763.80
1052.50,2051.20
1054.32,2364.20
1056.13,2787.40
1057.94,3252.60
1059.75,3785.80
1061.56,4293.80
1063.37,4731.60
1065.18,4935.80
1066.99,4909.20
1068.80,4649.20
1070.60,4228.60
1072.41,3648.60
1074.21,3069.80
1076.01,2557.40
1077.81,2137.40
1079.61,1837.00
1081.41,1618.40
1083.21,1424.60
1085.01,1318.40
1086.81,1240.40
1088.60,1161.60
1090.40,1135.00
1092.19,1087.80
1093.98,1044.80
1095.77,1018.60
1097.56,961.80
1099.35,916.60
1101.14,873.00
1102.93,832.20
1104.72,802.20
1106.50,766.00
1108.29,748.40
1110.07,724.20
1111.85,721.60
1113.63,684.40
1115.41,679.20
1117.19,647.20
1118.97,646.80
1120.75,614.00
1122.53,618.60
1124.30,601.00
1126.08,592.00
1127.85,572.40
1129.62,569.80
1131.39,555.20
1133.17,549.00
1134.93,544.60
1136.70,546.40
1138.47,552.40
1140.24,536.80
1142.00,535.80
1143.77,540.20
1145.53,546.40
1147.29,545.40
1149.06,563.60
1150.82,564.40
1152.58,573.60
1154.34,571.60
1156.09,580.60
1157.85,593.60
1159.61,591.60
1161.36,611.60
1163.11,608.40
1164.87,614.60
1166.62,633.60
1168.37,655.40
1170.12,676.00
1171.87,678.20
1173.62,704.20
1175.36,727.80
1177.11,750.60
1178.85,783.20
1180.60,813.80
1182.34,836.00
1184.08,864.20
1185.82,917.40
1187.56,960.40
1189.30,1000.40
1191.04,1040.60
1192.78,1099.80
1194.51,1178.40
1196.25,1254.20
1197.98,1329.40
1199.71,1441.40
1201.45,1565.80
1203.18,1702.20
1204.91,1887.00
1206.64,2066.00
1208.36,2323.40
1210.09,2645.20
1211.82,3022.00
1213.54,3484.00
1215.27,3929.00
1216.99,4359.80
1218.71,4764.20
1220.43,4989.40
1222.15,5008.80
1223.87,4842.20
1225.59,4505.00
1227.31,4086.60
1229.02,3600.00
1230.74,3153.60
1232.45,2768.00
1234.16,2412.20
1235.88,2180.60
1237.59,1949.00
1239.30,1778.60
1241.01,1653.20
1242.71,1553.20
1244.42,1502.60
1246.13,1438.00
1247.83,1391.20
1249.54,1351.20
1251.24,1335.20
1252.94,1280.20
1254.64,1273.80
1256.34,1247.80
1258.04,1235.20
1259.74,1238.20
1261.44,1218.80
1263.13,1226.20
1264.83,1230.60
1266.52,1228.20
1268.22,1223.00
1269.91,1225.00
1271.60,1223.80
1273.29,1229.60
1274.98,1247.60
1276.67,1254.80
1278.35,1234.00
1280.04,1263.60
1281.73,1261.00
1283.41,1284.60
1285.09,1306.00
1286.78,1327.20
1288.46,1332.00
1290.14,1349.00
1291.82,1381.20
1293.49,1404.20
1295.17,1426.80
1296.85,1460.20
1298.52,1477.40
1300.20,1491.40
1301.87,1522.40
1303.54,1563.60
1305.21,1579.00
1306.88,1600.60
1308.55,1637.80
1310.22,1640.20
1311.89,1681.80
1313.56,1700.80
1315.22,1749.80
1316.89,1734.80
1318.55,1773.00
1320.21,1801.40
1321.87,1823.60
1323.53,1860.00
1325.19,1916.40
1326.85,1932.40
1328.51,1983.80
1330.16,2011.40
1331.82,2043.40
1333.47,2107.20
1335.13,2165.40
1336.78,2221.40
1338.43,2292.20
1340.08,2387.80
1341.73,2478.20
1343.38,2595.80
1345.03,2725.20
1346.67,2898.80
1348.32,3055.80
1349.96,3226.80
1351.61,3409.80
1353.25,3552.20
1354.89,3642.20
1356.53,3698.80
1358.17,3667.80
1359.81,3614.40
1361.45,3514.40
1363.08,3479.80
1364.72,3423.60
1366.35,3327.60
1367.99,3321.40
1369.62,3303.60
1371.25,3287.40
1372.88,3325.20
1374.51,3343.20
1376.14,3390.20
1377.77,3451.80
1379.39,3492.80
1381.02,3557.20
1382.64,3626.80
1384.27,3686.60
1385.89,3768.80
1387.51,3838.00
1389.13,3907.20
1390.75,4009.40
1392.37,4114.60
1393.99,4249.60
1395.60,4370.80
1397.22,4524.80
1398.83,4714.80
1400.45,4925.40
1402.06,5152.00
1403.67,5435.40
1405.28,5715.80
1406.89,6064.00
1408.50,6439.20
1410.11,6839.60
1411.71,7232.40
1413.32,7672.80
1414.92,8123.20
1416.53,8546.20
1418.13,8931.20
1419.73,9234.60
1421.33,9522.60
1422.93,9782.80
1424.53,9956.00
1426.13,10090.00
1427.72,10093.60
1429.32,10109.80
1430.91,10071.60
1432.51,10010.00
1434.10,9837.80
1435.69,9650.20
1437.28,9367.80
1438.87,9083.80
1440.46,8747.20
1442.05,8423.00
1443.64,8002.60
1445.22,7589.40
1446.81,7233.00
1448.39,6868.20
1449.97,6523.00
1451.55,6171.20
1453.14,5903.20
1454.72,5617.20
1456.29,5348.60
1457.87,5116.80
1459.45,4890.20
1461.02,4699.80
1462.60,4514.80
1464.17,4318.20
1465.75,4160.00
1467.32,3983.60
1468.89,3831.80
1470.46,3708.40
1472.03,3580.60
1473.59,3466.60
1475.16,3351.80
1476.73,3245.60
1478.29,3177.60
1479.86,3077.40
1481.42,3003.40
1482.98,2956.00
1484.54,2870.60
1486.10,2811.80
1487.66,2750.40
1489.22,2689.00
1490.77,2673.80
1492.33,2602.00
1493.88,2562.20
1495.44,2535.20
1496.99,2498.20
1498.54,2468.60
1500.09,2428.20
1501.64,2413.40
1503.19,2373.20
1504.74,2349.00
1506.29,2328.40
1507.83,2314.60
1509.38,2277.40
1510.92,2268.20
1512.47,2255.60
1514.01,2245.00
1515.55,2236.80
1517.09,2212.60
1518.63,2185.20
1520.16,2190.20
1521.70,2170.60
1523.24,2151.40
1524.77,2150.40
1526.31,2142.60
1527.84,2114.60
1529.37,2114.60
1530.90,2111.40
1532.43,2100.20
1533.96,2073.60
1535.49,2065.20
1537.02,2054.20
1538.54,2039.20
1540.07,2036.20
1541.59,2029.60
1543.11,2025.80
1544.64,1999.00
1546.16,1968.00
1547.68,1976.00
1549.20,1958.00
1550.71,1939.80
1552.23,1927.20
1553.75,1907.40
1555.26,1904.40
1556.78,1870.80
1558.29,1859.20
1559.80,1834.20
1561.31,1825.20
1562.82,1815.40
1564.33,1800.40
1565.84,1786.80
1567.35,1804.20
1568.85,1771.60
1570.36,1743.80
1571.86,1738.80
1573.36,1723.60
1574.87,1737.60
1576.37,1693.20
1577.87,1681.00
1579.37,1676.80
1580.87,1657.60
1582.36,1645.40
1583.86,1622.20
1585.35,1592.60
1586.85,1567.40
1588.34,1548.40
1589.83,1528.00
1591.32,1513.20
1592.81,1468.40
1594.30,1467.80
1595.79,1458.60
1597.28,1441.60
1598.76,1417.00
1600.25,1397.80
1601.73,1387.80
1603.22,1391.80
1604.70,1371.20
1606.18,1359.40
1607.66,1344.40
1609.14,1321.80
1610.62,1308.60
1612.10,1286.20
1613.57,1292.40
1615.05,1268.00
1616.52,1261.60
1617.99,1242.20
1619.47,1230.80
1620.94,1217.40
1622.41,1205.00
1623.88,1192.80
1625.35,1166.80
1626.81,1177.60
1628.28,1179.80
1629.74,1158.80
1631.21,1151.60
1632.67,1145.60
1634.13,1142.80
1635.60,1144.20
1637.06,1136.20
1638.51,1141.80
1639.97,1132.80
1641.43,1128.60
1642.89,1125.00
1644.34,1139.80
1645.80,1136.20
1647.25,1116.40
1648.70,1125.40
1650.15,1127.40
1651.60,1132.00
1653.05,1142.20
1654.50,1136.20
1655.95,1143.80
1657.40,1162.80
1658.84,1166.80
1660.28,1175.40
1661.73,1185.60
1663.17,1201.40
1664.61,1225.80
1666.05,1232.60
1667.49,1274.80
1668.93,1299.80
1670.37,1334.40
1671.80,1370.40
1673.24,1403.40
1674.67,1456.20
1676.11,1455.20
1677.54,1492.80
1678.97,1494.60
1680.40,1530.60
1681.83,1529.80
1683.26,1570.40
1684.69,1606.00
1686.11,1643.40
1687.54,1742.20
1688.96,1840.60
1690.39,1934.80
1691.81,2115.60
1693.23,2292.60
1694.65,2571.80
1696.07,2931.00
1697.49,3379.20
1698.91,4033.80
1700.32,4865.00
1701.74,5896.40
1703.15,7016.20
1704.57,8135.60
1705.98,9112.60
1707.39,9886.00
1708.80,10222.80
1710.21,10185.20
1711.62,9827.40
1713.03,9241.00
1714.43,8469.00
1715.84,7668.20
1717.24,6939.00
1718.65,6176.20
1720.05,5529.20
1721.45,4937.20
1722.85,4423.80
1724.25,3932.00
1725.65,3552.60
1727.05,3209.20
1728.44,2935.40
1729.84,2696.80
1731.23,2500.00
1732.63,2332.20
1734.02,2205.20
1735.41,2106.20
1736.80,2035.00
1738.19,1963.80
1739.58,1928.60
1740.97,1870.00
1742.35,1890.40
1743.74,1857.40
1745.12,1866.20
1746.51,1866.40
1747.89,1870.40
1749.27,1845.00
1750.65,1778.40
1752.03,1736.20
1753.41,1652.40
1754.79,1563.60
1756.17,1474.20
1757.54,1388.00
1758.92,1314.20
1760.29,1243.60
1761.66,1186.20
1763.03,1126.80
1764.41,1072.00
1765.78,1025.80
1767.14,1006.00
1768.51,976.20
1769.88,950.40
1771.24,928.20
1772.61,909.80
1773.97,877.60
1775.34,864.60
1776.70,859.40
1778.06,852.80
1779.42,829.00
1780.78,822.80
1782.13,812.40
1783.49,789.60
1784.85,792.40
1786.20,798.20
1787.56,783.00
1788.91,780.00
1790.26,772.60
1791.61,770.60
1792.96,747.80
1794.31,755.00
1795.66,728.60
1797.00,714.60
1798.35,719.40
1799.69,713.80
1801.04,691.00
1802.38,692.60
1803.72,689.00
1805.06,665.20
1806.40,659.60
1807.74,659.80
1809.08,654.00
1810.42,651.40
1811.75,639.60
1813.09,615.60
1814.42,626.20
1815.76,610.00
1817.09,595.20
1818.42,589.60
1819.75,592.00
1821.08,581.00
1822.40,582.40
1823.73,569.60
1825.06,568.20
1826.38,562.00
1827.71,552.20
1829.03,559.60
1830.35,548.80
1831.67,554.00
1832.99,548.60
1834.31,538.60
1835.63,537.00
1836.95,531.60
1838.26,529.00
1839.58,523.40
1840.89,516.20
1842.20,519.80
1843.52,515.80
1844.83,513.40
1846.14,498.20
1847.45,509.20
1848.75,489.60
1850.06,497.60
1851.37,498.40
1852.67,493.40
1853.98,488.40
1855.28,487.40
1856.58,480.40
1857.88,483.60
1859.18,466.40
1860.48,466.40
1861.78,469.60
1863.08,479.80
1864.37,463.00
1865.67,469.40
1866.96,450.20
1868.26,454.00
1869.55,465.60
1870.84,459.40
1872.13,446.20
1873.42,438.60
1874.71,445.40
1875.99,444.20
1877.28,435.00
1878.56,439.20
1879.85,426.80
1881.13,424.80
1882.41,430.80
1883.69,433.60
1884.97,436.60
1886.25,422.40
1887.53,418.80
1888.81,413.60
1890.09,419.40
1891.36,424.20
1892.63,409.20
1893.91,420.60
1895.18,407.80
1896.45,414.80
1897.72,411.60
1898.99,411.80
1900.26,407.00
1901.53,406.40
1902.79,402.20
1904.06,401.40
1905.32,393.80
1906.58,403.80
1907.85,406.40
1909.11,395.20
1910.37,395.20
1911.63,389.60
1912.89,391.60
1914.14,401.00
1915.40,387.20
1916.65,389.00
1917.91,379.60
1919.16,384.20
1920.41,380.20
1921.67,397.00
1922.92,380.80
1924.17,373.00
1925.41,385.00
1926.66,390.40
1927.91,381.60
1929.15,375.00
1930.40,382.60
1931.64,372.60
1932.88,374.60
1934.12,371.80
1935.36,369.60
1936.60,368.20
1937.84,357.00
1939.08,362.00
1940.32,355.20
1941.55,361.00
1942.79,364.00
1944.02,348.20
1945.25,359.40
1946.48,363.80
1947.71,369.00
1948.94,360.40
1950.17,356.60
1951.40,356.80
1952.62,349.00
1953.85,358.60
1955.07,345.40
1956.30,340.20
1957.52,337.00
1958.74,343.40
1959.96,333.80
1961.18,334.60
1962.40,337.80
1963.62,313.20
1964.83,316.60
1966.05,315.00
1967.26,304.00
1968.48,303.20
1969.69,298.00
1970.90,289.60
1972.11,296.40
1973.32,281.80
1974.53,281.00
1975.74,284.80
1976.94,276.20
1978.15,272.60
1979.35,266.60
1980.56,263.20
1981.76,264.00
1982.96,260.00
1984.16,266.20
1985.36,260.40
1986.56,250.80
1987.76,246.40
1988.95,243.60
1990.15,244.80
1991.34,240.00
1992.54,230.00
1993.73,241.80
1994.92,235.60
1996.11,232.60
1997.30,225.00
1998.49,227.20
1999.68,222.80
